PE IR                   SPECTRUM    ASCII       PEDS        1.60        
  -1
~SP.SP
22/12/06
12:27:52.00
23/01/09
14:26:02.00
Administrator

650.000000
4









FRONTIER FT-IR,CPU32 MAIN 00.09.9951 07-SEPTEMBER-2011 11:49:41
MIR TGS
MIR
OPTKBR
90694
0.200000

4.000000
STRONG
RATIO
SPECTRUM
MAGNITUDE
MIRACLE ATR
DOUBLE

COMBINED


0


#HDR
-1
-1
#GR
CM-1
%T
0.00002384185791015625
0.0
4000.000000
-1.000000
3351
8
84.370649
70.137396
#DATA
4000.000000	84.331427 
3999.000000	84.330130 
3998.000000	84.328765 
3997.000000	84.327574 
3996.000000	84.326784 
3995.000000	84.326553 
3994.000000	84.326564 
3993.000000	84.326125 
3992.000000	84.324770 
3991.000000	84.322640 
3990.000000	84.320649 
3989.000000	84.319599 
3988.000000	84.319618 
3987.000000	84.320143 
3986.000000	84.320393 
3985.000000	84.319874 
3984.000000	84.318453 
3983.000000	84.316272 
3982.000000	84.313691 
3981.000000	84.311152 
3980.000000	84.308963 
3979.000000	84.307228 
3978.000000	84.305925 
3977.000000	84.304906 
3976.000000	84.303868 
3975.000000	84.302499 
3974.000000	84.300802 
3973.000000	84.299202 
3972.000000	84.298218 
3971.000000	84.298030 
3970.000000	84.298402 
3969.000000	84.298962 
3968.000000	84.299474 
3967.000000	84.299749 
3966.000000	84.299425 
3965.000000	84.298059 
3964.000000	84.295548 
3963.000000	84.292462 
3962.000000	84.289856 
3961.000000	84.288530 
3960.000000	84.288453 
3959.000000	84.288899 
3958.000000	84.289092 
3957.000000	84.288786 
3956.000000	84.288258 
3955.000000	84.287836 
3954.000000	84.287527 
3953.000000	84.286995 
3952.000000	84.285835 
3951.000000	84.283912 
3950.000000	84.281565 
3949.000000	84.279481 
3948.000000	84.278026 
3947.000000	84.276784 
3946.000000	84.275047 
3945.000000	84.272677 
3944.000000	84.270358 
3943.000000	84.269059 
3942.000000	84.269212 
3941.000000	84.270283 
3940.000000	84.271240 
3939.000000	84.271294 
3938.000000	84.270084 
3937.000000	84.267560 
3936.000000	84.264031 
3935.000000	84.260241 
3934.000000	84.257150 
3933.000000	84.255416 
3932.000000	84.255160 
3931.000000	84.256133 
3930.000000	84.257806 
3929.000000	84.259417 
3928.000000	84.260055 
3927.000000	84.259114 
3926.000000	84.256870 
3925.000000	84.254544 
3924.000000	84.253420 
3923.000000	84.253640 
3922.000000	84.254050 
3921.000000	84.253397 
3920.000000	84.251593 
3919.000000	84.249855 
3918.000000	84.249670 
3917.000000	84.251375 
3916.000000	84.253821 
3915.000000	84.255488 
3914.000000	84.255913 
3913.000000	84.255859 
3912.000000	84.256207 
3911.000000	84.256967 
3910.000000	84.257168 
3909.000000	84.255838 
3908.000000	84.253053 
3907.000000	84.249822 
3906.000000	84.247151 
3905.000000	84.245069 
3904.000000	84.242576 
3903.000000	84.238681 
3902.000000	84.233739 
3901.000000	84.230181 
3900.000000	84.230836 
3899.000000	84.235883 
3898.000000	84.242596 
3897.000000	84.247772 
3896.000000	84.250091 
3895.000000	84.249946 
3894.000000	84.247774 
3893.000000	84.243925 
3892.000000	84.240189 
3891.000000	84.239240 
3890.000000	84.240923 
3889.000000	84.241949 
3888.000000	84.240398 
3887.000000	84.237037 
3886.000000	84.233536 
3885.000000	84.231421 
3884.000000	84.230150 
3883.000000	84.227931 
3882.000000	84.225415 
3881.000000	84.225595 
3880.000000	84.230190 
3879.000000	84.237093 
3878.000000	84.241949 
3877.000000	84.243476 
3876.000000	84.244453 
3875.000000	84.247193 
3874.000000	84.250952 
3873.000000	84.253221 
3872.000000	84.252986 
3871.000000	84.252535 
3870.000000	84.255069 
3869.000000	84.260225 
3868.000000	84.263261 
3867.000000	84.261052 
3866.000000	84.255689 
3865.000000	84.250432 
3864.000000	84.247148 
3863.000000	84.246736 
3862.000000	84.247973 
3861.000000	84.248974 
3860.000000	84.250260 
3859.000000	84.255191 
3858.000000	84.268414 
3857.000000	84.292505 
3856.000000	84.322965 
3855.000000	84.346035 
3854.000000	84.351859 
3853.000000	84.350121 
3852.000000	84.350803 
3851.000000	84.344215 
3850.000000	84.325366 
3849.000000	84.303665 
3848.000000	84.287662 
3847.000000	84.278901 
3846.000000	84.274944 
3845.000000	84.272761 
3844.000000	84.271313 
3843.000000	84.271377 
3842.000000	84.273905 
3841.000000	84.279667 
3840.000000	84.289097 
3839.000000	84.301847 
3838.000000	84.316852 
3837.000000	84.330627 
3836.000000	84.336988 
3835.000000	84.331845 
3834.000000	84.317506 
3833.000000	84.301217 
3832.000000	84.289550 
3831.000000	84.284364 
3830.000000	84.283042 
3829.000000	84.281865 
3828.000000	84.279655 
3827.000000	84.277988 
3826.000000	84.278191 
3825.000000	84.279612 
3824.000000	84.280771 
3823.000000	84.280827 
3822.000000	84.281001 
3821.000000	84.285277 
3820.000000	84.294934 
3819.000000	84.304769 
3818.000000	84.310920 
3817.000000	84.314148 
3816.000000	84.314484 
3815.000000	84.310696 
3814.000000	84.301744 
3813.000000	84.288766 
3812.000000	84.276812 
3811.000000	84.270849 
3810.000000	84.271329 
3809.000000	84.274801 
3808.000000	84.277995 
3807.000000	84.280795 
3806.000000	84.283584 
3805.000000	84.284001 
3804.000000	84.280936 
3803.000000	84.276944 
3802.000000	84.274018 
3801.000000	84.272416 
3800.000000	84.269498 
3799.000000	84.260479 
3798.000000	84.247175 
3797.000000	84.237143 
3796.000000	84.233142 
3795.000000	84.230997 
3794.000000	84.225184 
3793.000000	84.214055 
3792.000000	84.200594 
3791.000000	84.189573 
3790.000000	84.184279 
3789.000000	84.184592 
3788.000000	84.187369 
3787.000000	84.188938 
3786.000000	84.188123 
3785.000000	84.187022 
3784.000000	84.188367 
3783.000000	84.193070 
3782.000000	84.200316 
3781.000000	84.208284 
3780.000000	84.214556 
3779.000000	84.217258 
3778.000000	84.215753 
3777.000000	84.210717 
3776.000000	84.204794 
3775.000000	84.200778 
3774.000000	84.198740 
3773.000000	84.197002 
3772.000000	84.195425 
3771.000000	84.196355 
3770.000000	84.201859 
3769.000000	84.209960 
3768.000000	84.215150 
3767.000000	84.214830 
3766.000000	84.212491 
3765.000000	84.212027 
3764.000000	84.212713 
3763.000000	84.211401 
3762.000000	84.206827 
3761.000000	84.200096 
3760.000000	84.193210 
3759.000000	84.189627 
3758.000000	84.192616 
3757.000000	84.202020 
3756.000000	84.216455 
3755.000000	84.235787 
3754.000000	84.258533 
3753.000000	84.279240 
3752.000000	84.292227 
3751.000000	84.300384 
3750.000000	84.311198 
3749.000000	84.320929 
3748.000000	84.320070 
3747.000000	84.310357 
3746.000000	84.298575 
3745.000000	84.285094 
3744.000000	84.270753 
3743.000000	84.254577 
3742.000000	84.229643 
3741.000000	84.200327 
3740.000000	84.179524 
3739.000000	84.169012 
3738.000000	84.158889 
3737.000000	84.141669 
3736.000000	84.125559 
3735.000000	84.126825 
3734.000000	84.148466 
3733.000000	84.175595 
3732.000000	84.189989 
3731.000000	84.183281 
3730.000000	84.157213 
3729.000000	84.119618 
3728.000000	84.081087 
3727.000000	84.050300 
3726.000000	84.031163 
3725.000000	84.022418 
3724.000000	84.019455 
3723.000000	84.018055 
3722.000000	84.016626 
3721.000000	84.015392 
3720.000000	84.013619 
3719.000000	84.009271 
3718.000000	84.000613 
3717.000000	83.987435 
3716.000000	83.972785 
3715.000000	83.960666 
3714.000000	83.950678 
3713.000000	83.937019 
3712.000000	83.915801 
3711.000000	83.891434 
3710.000000	83.869180 
3709.000000	83.848055 
3708.000000	83.826324 
3707.000000	83.805345 
3706.000000	83.786208 
3705.000000	83.766505 
3704.000000	83.741402 
3703.000000	83.707872 
3702.000000	83.668282 
3701.000000	83.628333 
3700.000000	83.589914 
3699.000000	83.550826 
3698.000000	83.510786 
3697.000000	83.471952 
3696.000000	83.436291 
3695.000000	83.405592 
3694.000000	83.382678 
3693.000000	83.371092 
3692.000000	83.371797 
3691.000000	83.379498 
3690.000000	83.384275 
3689.000000	83.379237 
3688.000000	83.363185 
3687.000000	83.335460 
3686.000000	83.298428 
3685.000000	83.261897 
3684.000000	83.235012 
3683.000000	83.218809 
3682.000000	83.208498 
3681.000000	83.198690 
3680.000000	83.185721 
3679.000000	83.166043 
3678.000000	83.136392 
3677.000000	83.098981 
3676.000000	83.069183 
3675.000000	83.066278 
3674.000000	83.083824 
3673.000000	83.095299 
3672.000000	83.090607 
3671.000000	83.074602 
3670.000000	83.052718 
3669.000000	83.033016 
3668.000000	83.017704 
3667.000000	83.001248 
3666.000000	82.981677 
3665.000000	82.959933 
3664.000000	82.936055 
3663.000000	82.913483 
3662.000000	82.899845 
3661.000000	82.900098 
3660.000000	82.912032 
3659.000000	82.928820 
3658.000000	82.945198 
3657.000000	82.961177 
3656.000000	82.979297 
3655.000000	82.997713 
3654.000000	83.011258 
3653.000000	83.020338 
3652.000000	83.028303 
3651.000000	83.032125 
3650.000000	83.029292 
3649.000000	83.031170 
3648.000000	83.049884 
3647.000000	83.077972 
3646.000000	83.099527 
3645.000000	83.110606 
3644.000000	83.117675 
3643.000000	83.126719 
3642.000000	83.138225 
3641.000000	83.149316 
3640.000000	83.158820 
3639.000000	83.168447 
3638.000000	83.179628 
3637.000000	83.190656 
3636.000000	83.199267 
3635.000000	83.207150 
3634.000000	83.219135 
3633.000000	83.237922 
3632.000000	83.260181 
3631.000000	83.277807 
3630.000000	83.283599 
3629.000000	83.282110 
3628.000000	83.285849 
3627.000000	83.293446 
3626.000000	83.296954 
3625.000000	83.300419 
3624.000000	83.310511 
3623.000000	83.325818 
3622.000000	83.340891 
3621.000000	83.351887 
3620.000000	83.358624 
3619.000000	83.363956 
3618.000000	83.369923 
3617.000000	83.375323 
3616.000000	83.379367 
3615.000000	83.383705 
3614.000000	83.390134 
3613.000000	83.399699 
3612.000000	83.412188 
3611.000000	83.425016 
3610.000000	83.434693 
3609.000000	83.440619 
3608.000000	83.446514 
3607.000000	83.456604 
3606.000000	83.470933 
3605.000000	83.485797 
3604.000000	83.497855 
3603.000000	83.506188 
3602.000000	83.512500 
3601.000000	83.519702 
3600.000000	83.528515 
3599.000000	83.535993 
3598.000000	83.538133 
3597.000000	83.534091 
3596.000000	83.528040 
3595.000000	83.526162 
3594.000000	83.531341 
3593.000000	83.541134 
3592.000000	83.550313 
3591.000000	83.555008 
3590.000000	83.554013 
3589.000000	83.548404 
3588.000000	83.542584 
3587.000000	83.542764 
3586.000000	83.550557 
3585.000000	83.561319 
3584.000000	83.570489 
3583.000000	83.577083 
3582.000000	83.581764 
3581.000000	83.585031 
3580.000000	83.587011 
3579.000000	83.587721 
3578.000000	83.587448 
3577.000000	83.586779 
3576.000000	83.585942 
3575.000000	83.584502 
3574.000000	83.581797 
3573.000000	83.577668 
3572.000000	83.572159 
3571.000000	83.564518 
3570.000000	83.553312 
3569.000000	83.538271 
3568.000000	83.523046 
3567.000000	83.514659 
3566.000000	83.517225 
3565.000000	83.527928 
3564.000000	83.540821 
3563.000000	83.551632 
3562.000000	83.558010 
3561.000000	83.559151 
3560.000000	83.556791 
3559.000000	83.554608 
3558.000000	83.555235 
3557.000000	83.557859 
3556.000000	83.559135 
3555.000000	83.556493 
3554.000000	83.550445 
3553.000000	83.543824 
3552.000000	83.539000 
3551.000000	83.535958 
3550.000000	83.533215 
3549.000000	83.529752 
3548.000000	83.525474 
3547.000000	83.520912 
3546.000000	83.517503 
3545.000000	83.517342 
3544.000000	83.521356 
3543.000000	83.527753 
3542.000000	83.532896 
3541.000000	83.534087 
3540.000000	83.531367 
3539.000000	83.526931 
3538.000000	83.523178 
3537.000000	83.521089 
3536.000000	83.520207 
3535.000000	83.519658 
3534.000000	83.518983 
3533.000000	83.518094 
3532.000000	83.516703 
3531.000000	83.514186 
3530.000000	83.510239 
3529.000000	83.505543 
3528.000000	83.501352 
3527.000000	83.498261 
3526.000000	83.495772 
3525.000000	83.493212 
3524.000000	83.490655 
3523.000000	83.488673 
3522.000000	83.487475 
3521.000000	83.486684 
3520.000000	83.485757 
3519.000000	83.484335 
3518.000000	83.482310 
3517.000000	83.479809 
3516.000000	83.477174 
3515.000000	83.474715 
3514.000000	83.472314 
3513.000000	83.469450 
3512.000000	83.465766 
3511.000000	83.461567 
3510.000000	83.457663 
3509.000000	83.454677 
3508.000000	83.452487 
3507.000000	83.450364 
3506.000000	83.447598 
3505.000000	83.444052 
3504.000000	83.440138 
3503.000000	83.436473 
3502.000000	83.433367 
3501.000000	83.430680 
3500.000000	83.428036 
3499.000000	83.425175 
3498.000000	83.422139 
3497.000000	83.419134 
3496.000000	83.416285 
3495.000000	83.413526 
3494.000000	83.410685 
3493.000000	83.407683 
3492.000000	83.404605 
3491.000000	83.401597 
3490.000000	83.398725 
3489.000000	83.395958 
3488.000000	83.393219 
3487.000000	83.390427 
3486.000000	83.387517 
3485.000000	83.384460 
3484.000000	83.381287 
3483.000000	83.378069 
3482.000000	83.374865 
3481.000000	83.371692 
3480.000000	83.368549 
3479.000000	83.365423 
3478.000000	83.362288 
3477.000000	83.359105 
3476.000000	83.355849 
3475.000000	83.352529 
3474.000000	83.349208 
3473.000000	83.345961 
3472.000000	83.342813 
3471.000000	83.339688 
3470.000000	83.336443 
3469.000000	83.332984 
3468.000000	83.329397 
3467.000000	83.325941 
3466.000000	83.322838 
3465.000000	83.320027 
3464.000000	83.317171 
3463.000000	83.313987 
3462.000000	83.310572 
3461.000000	83.307317 
3460.000000	83.304410 
3459.000000	83.301545 
3458.000000	83.298219 
3457.000000	83.294222 
3456.000000	83.289787 
3455.000000	83.285354 
3454.000000	83.281233 
3453.000000	83.277503 
3452.000000	83.274027 
3451.000000	83.270462 
3450.000000	83.266415 
3449.000000	83.261800 
3448.000000	83.257086 
3447.000000	83.253020 
3446.000000	83.249900 
3445.000000	83.247192 
3444.000000	83.243952 
3443.000000	83.239624 
3442.000000	83.234442 
3441.000000	83.229317 
3440.000000	83.225202 
3439.000000	83.222323 
3438.000000	83.219862 
3437.000000	83.216535 
3436.000000	83.211813 
3435.000000	83.206469 
3434.000000	83.201909 
3433.000000	83.198967 
3432.000000	83.197450 
3431.000000	83.196639 
3430.000000	83.195911 
3429.000000	83.194911 
3428.000000	83.193334 
3427.000000	83.190808 
3426.000000	83.187150 
3425.000000	83.182678 
3424.000000	83.178158 
3423.000000	83.174281 
3422.000000	83.171118 
3421.000000	83.168257 
3420.000000	83.165446 
3419.000000	83.162921 
3418.000000	83.160998 
3417.000000	83.159471 
3416.000000	83.157585 
3415.000000	83.154696 
3414.000000	83.150955 
3413.000000	83.147337 
3412.000000	83.144874 
3411.000000	83.143705 
3410.000000	83.142860 
3409.000000	83.141106 
3408.000000	83.138131 
3407.000000	83.134954 
3406.000000	83.133057 
3405.000000	83.133081 
3404.000000	83.134279 
3403.000000	83.135026 
3402.000000	83.134059 
3401.000000	83.131439 
3400.000000	83.128548 
3399.000000	83.127059 
3398.000000	83.127632 
3397.000000	83.129516 
3396.000000	83.131203 
3395.000000	83.131607 
3394.000000	83.130685 
3393.000000	83.129246 
3392.000000	83.128364 
3391.000000	83.128700 
3390.000000	83.130019 
3389.000000	83.131255 
3388.000000	83.131296 
3387.000000	83.129908 
3386.000000	83.127962 
3385.000000	83.126678 
3384.000000	83.126640 
3383.000000	83.127551 
3382.000000	83.128796 
3381.000000	83.130057 
3380.000000	83.131295 
3379.000000	83.132283 
3378.000000	83.132467 
3377.000000	83.131538 
3376.000000	83.130158 
3375.000000	83.129829 
3374.000000	83.131815 
3373.000000	83.136250 
3372.000000	83.142108 
3371.000000	83.147837 
3370.000000	83.152075 
3369.000000	83.154094 
3368.000000	83.154081 
3367.000000	83.153088 
3366.000000	83.152407 
3365.000000	83.152755 
3364.000000	83.154156 
3363.000000	83.156444 
3362.000000	83.159516 
3361.000000	83.163102 
3360.000000	83.166684 
3359.000000	83.169906 
3358.000000	83.172925 
3357.000000	83.176140 
3356.000000	83.179574 
3355.000000	83.182656 
3354.000000	83.184647 
3353.000000	83.185260 
3352.000000	83.184956 
3351.000000	83.184769 
3350.000000	83.185606 
3349.000000	83.187627 
3348.000000	83.190294 
3347.000000	83.192963 
3346.000000	83.195493 
3345.000000	83.198169 
3344.000000	83.201152 
3343.000000	83.204194 
3342.000000	83.206851 
3341.000000	83.208890 
3340.000000	83.210465 
3339.000000	83.211981 
3338.000000	83.213783 
3337.000000	83.215942 
3336.000000	83.218241 
3335.000000	83.220342 
3334.000000	83.222029 
3333.000000	83.223337 
3332.000000	83.224522 
3331.000000	83.225919 
3330.000000	83.227710 
3329.000000	83.229824 
3328.000000	83.231938 
3327.000000	83.233696 
3326.000000	83.235011 
3325.000000	83.236102 
3324.000000	83.237290 
3323.000000	83.238721 
3322.000000	83.240332 
3321.000000	83.241963 
3320.000000	83.243489 
3319.000000	83.244882 
3318.000000	83.246161 
3317.000000	83.247319 
3316.000000	83.248326 
3315.000000	83.249197 
3314.000000	83.250026 
3313.000000	83.250892 
3312.000000	83.251772 
3311.000000	83.252623 
3310.000000	83.253550 
3309.000000	83.254762 
3308.000000	83.256314 
3307.000000	83.257960 
3306.000000	83.259344 
3305.000000	83.260350 
3304.000000	83.261158 
3303.000000	83.262044 
3302.000000	83.263088 
3301.000000	83.264135 
3300.000000	83.265030 
3299.000000	83.265823 
3298.000000	83.266711 
3297.000000	83.267806 
3296.000000	83.269048 
3295.000000	83.270284 
3294.000000	83.271370 
3293.000000	83.272169 
3292.000000	83.272584 
3291.000000	83.272692 
3290.000000	83.272854 
3289.000000	83.273492 
3288.000000	83.274742 
3287.000000	83.276277 
3286.000000	83.277526 
3285.000000	83.278113 
3284.000000	83.277976 
3283.000000	83.277320 
3282.000000	83.276539 
3281.000000	83.276107 
3280.000000	83.276339 
3279.000000	83.277115 
3278.000000	83.277965 
3277.000000	83.278524 
3276.000000	83.278881 
3275.000000	83.279426 
3274.000000	83.280391 
3273.000000	83.281618 
3272.000000	83.282730 
3271.000000	83.283397 
3270.000000	83.283476 
3269.000000	83.283074 
3268.000000	83.282575 
3267.000000	83.282465 
3266.000000	83.282990 
3265.000000	83.283971 
3264.000000	83.285017 
3263.000000	83.285906 
3262.000000	83.286680 
3261.000000	83.287354 
3260.000000	83.287602 
3259.000000	83.286947 
3258.000000	83.285338 
3257.000000	83.283559 
3256.000000	83.282870 
3255.000000	83.283953 
3254.000000	83.286144 
3253.000000	83.287884 
3252.000000	83.288106 
3251.000000	83.287023 
3250.000000	83.285567 
3249.000000	83.284391 
3248.000000	83.283639 
3247.000000	83.283363 
3246.000000	83.283462 
3245.000000	83.283144 
3244.000000	83.281231 
3243.000000	83.277537 
3242.000000	83.273635 
3241.000000	83.271477 
3240.000000	83.271202 
3239.000000	83.271011 
3238.000000	83.269360 
3237.000000	83.266938 
3236.000000	83.265922 
3235.000000	83.267576 
3234.000000	83.271121 
3233.000000	83.274623 
3232.000000	83.276661 
3231.000000	83.277055 
3230.000000	83.276443 
3229.000000	83.275703 
3228.000000	83.275616 
3227.000000	83.276606 
3226.000000	83.278481 
3225.000000	83.280442 
3224.000000	83.281593 
3223.000000	83.281687 
3222.000000	83.281397 
3221.000000	83.281749 
3220.000000	83.283142 
3219.000000	83.284931 
3218.000000	83.286019 
3217.000000	83.285870 
3216.000000	83.285000 
3215.000000	83.284589 
3214.000000	83.285635 
3213.000000	83.288342 
3212.000000	83.292034 
3211.000000	83.295633 
3210.000000	83.298414 
3209.000000	83.300419 
3208.000000	83.302162 
3207.000000	83.303932 
3206.000000	83.305450 
3205.000000	83.306224 
3204.000000	83.306070 
3203.000000	83.305256 
3202.000000	83.304374 
3201.000000	83.304258 
3200.000000	83.305747 
3199.000000	83.309166 
3198.000000	83.313919 
3197.000000	83.318690 
3196.000000	83.322412 
3195.000000	83.324959 
3194.000000	83.326895 
3193.000000	83.328837 
3192.000000	83.331032 
3191.000000	83.333356 
3190.000000	83.335505 
3189.000000	83.337220 
