PE IR                   SPECTRUM    ASCII       PEDS        1.60        
  -1
~SP.SP
22/12/06
11:56:43.00
23/01/09
14:29:25.00
Administrator

650.000000
4









FRONTIER FT-IR,CPU32 MAIN 00.09.9951 07-SEPTEMBER-2011 11:49:41
MIR TGS
MIR
OPTKBR
90694
0.200000

4.000000
STRONG
RATIO
SPECTRUM
MAGNITUDE
MIRACLE ATR
DOUBLE

COMBINED


0


#HDR
-1
-1
#GR
CM-1
%T
0.00002384185791015625
0.0
4000.000000
-1.000000
3351
8
96.550920
66.019160
#DATA
4000.000000	96.537895 
3999.000000	96.537128 
3998.000000	96.536039 
3997.000000	96.535364 
3996.000000	96.535668 
3995.000000	96.537187 
3994.000000	96.539182 
3993.000000	96.540311 
3992.000000	96.539808 
3991.000000	96.537912 
3990.000000	96.536061 
3989.000000	96.535627 
3988.000000	96.536854 
3987.000000	96.538822 
3986.000000	96.540242 
3985.000000	96.540405 
3984.000000	96.539344 
3983.000000	96.537551 
3982.000000	96.535662 
3981.000000	96.534200 
3980.000000	96.533418 
3979.000000	96.533305 
3978.000000	96.533625 
3977.000000	96.533875 
3976.000000	96.533346 
3975.000000	96.531505 
3974.000000	96.528552 
3973.000000	96.525565 
3972.000000	96.523823 
3971.000000	96.523932 
3970.000000	96.525646 
3969.000000	96.528238 
3968.000000	96.530950 
3967.000000	96.533211 
3966.000000	96.534633 
3965.000000	96.534986 
3964.000000	96.534312 
3963.000000	96.533017 
3962.000000	96.531818 
3961.000000	96.531412 
3960.000000	96.531996 
3959.000000	96.533190 
3958.000000	96.534438 
3957.000000	96.535469 
3956.000000	96.536336 
3955.000000	96.537089 
3954.000000	96.537697 
3953.000000	96.538212 
3952.000000	96.538774 
3951.000000	96.539320 
3950.000000	96.539435 
3949.000000	96.538720 
3948.000000	96.537267 
3947.000000	96.535560 
3946.000000	96.534094 
3945.000000	96.533129 
3944.000000	96.532674 
3943.000000	96.532653 
3942.000000	96.532888 
3941.000000	96.532974 
3940.000000	96.532410 
3939.000000	96.531126 
3938.000000	96.529792 
3937.000000	96.529170 
3936.000000	96.529345 
3935.000000	96.529777 
3934.000000	96.530015 
3933.000000	96.530170 
3932.000000	96.530562 
3931.000000	96.531241 
3930.000000	96.532022 
3929.000000	96.532749 
3928.000000	96.533304 
3927.000000	96.533477 
3926.000000	96.533095 
3925.000000	96.532380 
3924.000000	96.531974 
3923.000000	96.532206 
3922.000000	96.532575 
3921.000000	96.532385 
3920.000000	96.531718 
3919.000000	96.531357 
3918.000000	96.531785 
3917.000000	96.532606 
3916.000000	96.532997 
3915.000000	96.532556 
3914.000000	96.531550 
3913.000000	96.530615 
3912.000000	96.530254 
3911.000000	96.530353 
3910.000000	96.530223 
3909.000000	96.529197 
3908.000000	96.527349 
3907.000000	96.525571 
3906.000000	96.524704 
3905.000000	96.524588 
3904.000000	96.524113 
3903.000000	96.522438 
3902.000000	96.519972 
3901.000000	96.518019 
3900.000000	96.517585 
3899.000000	96.518686 
3898.000000	96.520453 
3897.000000	96.521698 
3896.000000	96.521689 
3895.000000	96.520583 
3894.000000	96.518937 
3893.000000	96.516805 
3892.000000	96.513797 
3891.000000	96.510216 
3890.000000	96.507573 
3889.000000	96.506709 
3888.000000	96.506769 
3887.000000	96.506510 
3886.000000	96.505469 
3885.000000	96.504104 
3884.000000	96.503270 
3883.000000	96.502939 
3882.000000	96.502685 
3881.000000	96.503055 
3880.000000	96.504795 
3879.000000	96.507592 
3878.000000	96.510032 
3877.000000	96.510694 
3876.000000	96.509653 
3875.000000	96.507909 
3874.000000	96.505939 
3873.000000	96.503634 
3872.000000	96.500504 
3871.000000	96.496224 
3870.000000	96.491971 
3869.000000	96.490322 
3868.000000	96.492589 
3867.000000	96.496639 
3866.000000	96.499133 
3865.000000	96.499017 
3864.000000	96.497335 
3863.000000	96.495474 
3862.000000	96.494385 
3861.000000	96.494622 
3860.000000	96.496674 
3859.000000	96.500477 
3858.000000	96.505519 
3857.000000	96.511305 
3856.000000	96.517225 
3855.000000	96.521555 
3854.000000	96.521598 
3853.000000	96.517040 
3852.000000	96.512574 
3851.000000	96.511052 
3850.000000	96.510258 
3849.000000	96.509632 
3848.000000	96.511137 
3847.000000	96.515422 
3846.000000	96.520518 
3845.000000	96.523505 
3844.000000	96.523034 
3843.000000	96.520110 
3842.000000	96.517071 
3841.000000	96.515353 
3840.000000	96.514671 
3839.000000	96.514262 
3838.000000	96.514262 
3837.000000	96.515205 
3836.000000	96.516733 
3835.000000	96.517548 
3834.000000	96.516970 
3833.000000	96.515809 
3832.000000	96.515493 
3831.000000	96.516699 
3830.000000	96.518793 
3829.000000	96.520306 
3828.000000	96.520085 
3827.000000	96.517772 
3826.000000	96.513847 
3825.000000	96.509328 
3824.000000	96.504918 
3823.000000	96.500705 
3822.000000	96.496680 
3821.000000	96.493138 
3820.000000	96.492327 
3819.000000	96.496271 
3818.000000	96.502719 
3817.000000	96.507865 
3816.000000	96.509967 
3815.000000	96.510318 
3814.000000	96.511591 
3813.000000	96.513979 
3812.000000	96.515956 
3811.000000	96.517185 
3810.000000	96.518038 
3809.000000	96.518302 
3808.000000	96.517207 
3807.000000	96.514469 
3806.000000	96.511316 
3805.000000	96.509325 
3804.000000	96.508213 
3803.000000	96.506663 
3802.000000	96.503676 
3801.000000	96.499333 
3800.000000	96.495967 
3799.000000	96.495155 
3798.000000	96.496190 
3797.000000	96.498586 
3796.000000	96.501919 
3795.000000	96.504897 
3794.000000	96.505978 
3793.000000	96.504500 
3792.000000	96.501296 
3791.000000	96.498208 
3790.000000	96.496680 
3789.000000	96.497034 
3788.000000	96.498767 
3787.000000	96.500963 
3786.000000	96.502563 
3785.000000	96.502850 
3784.000000	96.502066 
3783.000000	96.501366 
3782.000000	96.501828 
3781.000000	96.503593 
3780.000000	96.505816 
3779.000000	96.507337 
3778.000000	96.507740 
3777.000000	96.507208 
3776.000000	96.505808 
3775.000000	96.503672 
3774.000000	96.501507 
3773.000000	96.500292 
3772.000000	96.500620 
3771.000000	96.502503 
3770.000000	96.505672 
3769.000000	96.509752 
3768.000000	96.513742 
3767.000000	96.515684 
3766.000000	96.514284 
3765.000000	96.510523 
3764.000000	96.506741 
3763.000000	96.504091 
3762.000000	96.501866 
3761.000000	96.499726 
3760.000000	96.498983 
3759.000000	96.500573 
3758.000000	96.503606 
3757.000000	96.506669 
3756.000000	96.509582 
3755.000000	96.512603 
3754.000000	96.515111 
3753.000000	96.516523 
3752.000000	96.517650 
3751.000000	96.518995 
3750.000000	96.519049 
3749.000000	96.516791 
3748.000000	96.512962 
3747.000000	96.509302 
3746.000000	96.507488 
3745.000000	96.506276 
3744.000000	96.502395 
3743.000000	96.497558 
3742.000000	96.492891 
3741.000000	96.485259 
3740.000000	96.476978 
3739.000000	96.472390 
3738.000000	96.469281 
3737.000000	96.461711 
3736.000000	96.450027 
3735.000000	96.443129 
3734.000000	96.447336 
3733.000000	96.457843 
3732.000000	96.465367 
3731.000000	96.466424 
3730.000000	96.462000 
3729.000000	96.452563 
3728.000000	96.439008 
3727.000000	96.425201 
3726.000000	96.415872 
3725.000000	96.411676 
3724.000000	96.407853 
3723.000000	96.399874 
3722.000000	96.388838 
3721.000000	96.379239 
3720.000000	96.373196 
3719.000000	96.368435 
3718.000000	96.361477 
3717.000000	96.351371 
3716.000000	96.340062 
3715.000000	96.329168 
3714.000000	96.318051 
3713.000000	96.304679 
3712.000000	96.287169 
3711.000000	96.265576 
3710.000000	96.242903 
3709.000000	96.222283 
3708.000000	96.205142 
3707.000000	96.192440 
3706.000000	96.184167 
3705.000000	96.177392 
3704.000000	96.166652 
3703.000000	96.147881 
3702.000000	96.122337 
3701.000000	96.096509 
3700.000000	96.076498 
3699.000000	96.062882 
3698.000000	96.051814 
3697.000000	96.039904 
3696.000000	96.026823 
3695.000000	96.014220 
3694.000000	96.003855 
3693.000000	95.997014 
3692.000000	95.993680 
3691.000000	95.990056 
3690.000000	95.979537 
3689.000000	95.959867 
3688.000000	95.938328 
3687.000000	95.923353 
3686.000000	95.914235 
3685.000000	95.904842 
3684.000000	95.891578 
3683.000000	95.874930 
3682.000000	95.856241 
3681.000000	95.835288 
3680.000000	95.811593 
3679.000000	95.787679 
3678.000000	95.767561 
3677.000000	95.751803 
3676.000000	95.735669 
3675.000000	95.716273 
3674.000000	95.698885 
3673.000000	95.684625 
3672.000000	95.665992 
3671.000000	95.639087 
3670.000000	95.605639 
3669.000000	95.571746 
3668.000000	95.544894 
3667.000000	95.524706 
3666.000000	95.505338 
3665.000000	95.482800 
3664.000000	95.455919 
3663.000000	95.426312 
3662.000000	95.397582 
3661.000000	95.372512 
3660.000000	95.351411 
3659.000000	95.333296 
3658.000000	95.317176 
3657.000000	95.301379 
3656.000000	95.282509 
3655.000000	95.258266 
3654.000000	95.228698 
3653.000000	95.196340 
3652.000000	95.167475 
3651.000000	95.147231 
3650.000000	95.131546 
3649.000000	95.112088 
3648.000000	95.090400 
3647.000000	95.074085 
3646.000000	95.064023 
3645.000000	95.055061 
3644.000000	95.042859 
3643.000000	95.026175 
3642.000000	95.005467 
3641.000000	94.981629 
3640.000000	94.956459 
3639.000000	94.932659 
3638.000000	94.912495 
3637.000000	94.895857 
3636.000000	94.879222 
3635.000000	94.857542 
3634.000000	94.828596 
3633.000000	94.796303 
3632.000000	94.769249 
3631.000000	94.756138 
3630.000000	94.758991 
3629.000000	94.765664 
3628.000000	94.760626 
3627.000000	94.744230 
3626.000000	94.724027 
3625.000000	94.706236 
3624.000000	94.695610 
3623.000000	94.691687 
3622.000000	94.692368 
3621.000000	94.699883 
3620.000000	94.718380 
3619.000000	94.745867 
3618.000000	94.774171 
3617.000000	94.797438 
3616.000000	94.816032 
3615.000000	94.833984 
3614.000000	94.854173 
3613.000000	94.876253 
3612.000000	94.899050 
3611.000000	94.922381 
3610.000000	94.946618 
3609.000000	94.971957 
3608.000000	94.997076 
3607.000000	95.019386 
3606.000000	95.036755 
3605.000000	95.048662 
3604.000000	95.056829 
3603.000000	95.064387 
3602.000000	95.073724 
3601.000000	95.085682 
3600.000000	95.099721 
3599.000000	95.113588 
3598.000000	95.123439 
3597.000000	95.127183 
3596.000000	95.126921 
3595.000000	95.126889 
3594.000000	95.129620 
3593.000000	95.134927 
3592.000000	95.141861 
3591.000000	95.151175 
3590.000000	95.164946 
3589.000000	95.182834 
3588.000000	95.199321 
3587.000000	95.207846 
3586.000000	95.207332 
3585.000000	95.200570 
3584.000000	95.190554 
3583.000000	95.181100 
3582.000000	95.175865 
3581.000000	95.175676 
3580.000000	95.177841 
3579.000000	95.178474 
3578.000000	95.175472 
3577.000000	95.169754 
3576.000000	95.163513 
3575.000000	95.157344 
3574.000000	95.149834 
3573.000000	95.139876 
3572.000000	95.128648 
3571.000000	95.118970 
3570.000000	95.113392 
3569.000000	95.112382 
3568.000000	95.113787 
3567.000000	95.114329 
3566.000000	95.112758 
3565.000000	95.110269 
3564.000000	95.107953 
3563.000000	95.106331 
3562.000000	95.105165 
3561.000000	95.103003 
3560.000000	95.098909 
3559.000000	95.094165 
3558.000000	95.090848 
3557.000000	95.088989 
3556.000000	95.086415 
3555.000000	95.081129 
3554.000000	95.073081 
3553.000000	95.063619 
3552.000000	95.054135 
3551.000000	95.045618 
3550.000000	95.038921 
3549.000000	95.034605 
3548.000000	95.032345 
3547.000000	95.030840 
3546.000000	95.029154 
3545.000000	95.027952 
3544.000000	95.028198 
3543.000000	95.029033 
3542.000000	95.028200 
3541.000000	95.024381 
3540.000000	95.018312 
3539.000000	95.011907 
3538.000000	95.006757 
3537.000000	95.003217 
3536.000000	95.000648 
3535.000000	94.998101 
3534.000000	94.994870 
3533.000000	94.990745 
3532.000000	94.985945 
3531.000000	94.980912 
3530.000000	94.976059 
3529.000000	94.971642 
3528.000000	94.967703 
3527.000000	94.964044 
3526.000000	94.960330 
3525.000000	94.956335 
3524.000000	94.952091 
3523.000000	94.947791 
3522.000000	94.943630 
3521.000000	94.939757 
3520.000000	94.936231 
3519.000000	94.932901 
3518.000000	94.929385 
3517.000000	94.925387 
3516.000000	94.921003 
3515.000000	94.916627 
3514.000000	94.912512 
3513.000000	94.908526 
3512.000000	94.904343 
3511.000000	94.899827 
3510.000000	94.895189 
3509.000000	94.890794 
3508.000000	94.886768 
3507.000000	94.882802 
3506.000000	94.878392 
3505.000000	94.873326 
3504.000000	94.867962 
3503.000000	94.862997 
3502.000000	94.858787 
3501.000000	94.855001 
3500.000000	94.850970 
3499.000000	94.846397 
3498.000000	94.841615 
3497.000000	94.837248 
3496.000000	94.833626 
3495.000000	94.830472 
3494.000000	94.827043 
3493.000000	94.822815 
3492.000000	94.817967 
3491.000000	94.813198 
3490.000000	94.809044 
3489.000000	94.805471 
3488.000000	94.802126 
3487.000000	94.798759 
3486.000000	94.795240 
3485.000000	94.791338 
3484.000000	94.786796 
3483.000000	94.781619 
3482.000000	94.776142 
3481.000000	94.770762 
3480.000000	94.765695 
3479.000000	94.760980 
3478.000000	94.756517 
3477.000000	94.752062 
3476.000000	94.747328 
3475.000000	94.742226 
3474.000000	94.737017 
3473.000000	94.732109 
3472.000000	94.727600 
3471.000000	94.723051 
3470.000000	94.717889 
3469.000000	94.712083 
3468.000000	94.706364 
3467.000000	94.701638 
3466.000000	94.698106 
3465.000000	94.694919 
3464.000000	94.690783 
3463.000000	94.685005 
3462.000000	94.677982 
3461.000000	94.670855 
3460.000000	94.664662 
3459.000000	94.659781 
3458.000000	94.655919 
3457.000000	94.652351 
3456.000000	94.648296 
3455.000000	94.643367 
3454.000000	94.637756 
3453.000000	94.631929 
3452.000000	94.626052 
3451.000000	94.619840 
3450.000000	94.613107 
3449.000000	94.606333 
3448.000000	94.600467 
3447.000000	94.596097 
3446.000000	94.592782 
3445.000000	94.589131 
3444.000000	94.583550 
3443.000000	94.575208 
3442.000000	94.564809 
3441.000000	94.554632 
3440.000000	94.547020 
3439.000000	94.542462 
3438.000000	94.539134 
3437.000000	94.534578 
3436.000000	94.528069 
3435.000000	94.520923 
3434.000000	94.514741 
3433.000000	94.510067 
3432.000000	94.506758 
3431.000000	94.504803 
3430.000000	94.504074 
3429.000000	94.503654 
3428.000000	94.502142 
3427.000000	94.498840 
3426.000000	94.494392 
3425.000000	94.490153 
3424.000000	94.486921 
3423.000000	94.484238 
3422.000000	94.480957 
3421.000000	94.476576 
3420.000000	94.471937 
3419.000000	94.468449 
3418.000000	94.466643 
3417.000000	94.465586 
3416.000000	94.463585 
3415.000000	94.459496 
3414.000000	94.453611 
3413.000000	94.447641 
3412.000000	94.443616 
3411.000000	94.442309 
3410.000000	94.442616 
3409.000000	94.442537 
3408.000000	94.440967 
3407.000000	94.438415 
3406.000000	94.436098 
3405.000000	94.434608 
3404.000000	94.433437 
3403.000000	94.431513 
3402.000000	94.428238 
3401.000000	94.424287 
3400.000000	94.421415 
3399.000000	94.421057 
3398.000000	94.423007 
3397.000000	94.425449 
3396.000000	94.426467 
3395.000000	94.425641 
3394.000000	94.424010 
3393.000000	94.422894 
3392.000000	94.422853 
3391.000000	94.423569 
3390.000000	94.424296 
3389.000000	94.424276 
3388.000000	94.423052 
3387.000000	94.420731 
3386.000000	94.418013 
3385.000000	94.415765 
3384.000000	94.414472 
3383.000000	94.414202 
3382.000000	94.415017 
3381.000000	94.417082 
3380.000000	94.420133 
3379.000000	94.423071 
3378.000000	94.424562 
3377.000000	94.424167 
3376.000000	94.422749 
3375.000000	94.421788 
3374.000000	94.422311 
3373.000000	94.424510 
3372.000000	94.427958 
3371.000000	94.431828 
3370.000000	94.435070 
3369.000000	94.436803 
3368.000000	94.436826 
3367.000000	94.435758 
3366.000000	94.434642 
3365.000000	94.434382 
3364.000000	94.435488 
3363.000000	94.438153 
3362.000000	94.442223 
3361.000000	94.447114 
3360.000000	94.451949 
3359.000000	94.455951 
3358.000000	94.458824 
3357.000000	94.460798 
3356.000000	94.462423 
3355.000000	94.464153 
3354.000000	94.465982 
3353.000000	94.467542 
3352.000000	94.468667 
3351.000000	94.469823 
3350.000000	94.471800 
3349.000000	94.474908 
3348.000000	94.478584 
3347.000000	94.481939 
3346.000000	94.484683 
3345.000000	94.487318 
3344.000000	94.490451 
3343.000000	94.494057 
3342.000000	94.497466 
3341.000000	94.500036 
3340.000000	94.501758 
3339.000000	94.503305 
3338.000000	94.505544 
3337.000000	94.508909 
3336.000000	94.513143 
3335.000000	94.517437 
3334.000000	94.520965 
3333.000000	94.523456 
3332.000000	94.525333 
3331.000000	94.527459 
3330.000000	94.530548 
3329.000000	94.534648 
3328.000000	94.539055 
3327.000000	94.542788 
3326.000000	94.545394 
3325.000000	94.547309 
3324.000000	94.549412 
3323.000000	94.552196 
3322.000000	94.555365 
3321.000000	94.558186 
3320.000000	94.560197 
3319.000000	94.561585 
3318.000000	94.562951 
3317.000000	94.564692 
3316.000000	94.566661 
3315.000000	94.568402 
3314.000000	94.569624 
3313.000000	94.570400 
3312.000000	94.571092 
3311.000000	94.572284 
3310.000000	94.574712 
3309.000000	94.578825 
3308.000000	94.584189 
3307.000000	94.589497 
3306.000000	94.593564 
3305.000000	94.596376 
3304.000000	94.598860 
3303.000000	94.601722 
3302.000000	94.604690 
3301.000000	94.607052 
3300.000000	94.608656 
3299.000000	94.610068 
3298.000000	94.611943 
3297.000000	94.614517 
3296.000000	94.617711 
3295.000000	94.621332 
3294.000000	94.624981 
3293.000000	94.627988 
3292.000000	94.629812 
3291.000000	94.630547 
3290.000000	94.631059 
3289.000000	94.632418 
3288.000000	94.635117 
3287.000000	94.638860 
3286.000000	94.642815 
3285.000000	94.646175 
3284.000000	94.648607 
3283.000000	94.650385 
3282.000000	94.652249 
3281.000000	94.654910 
3280.000000	94.658465 
3279.000000	94.662319 
3278.000000	94.665829 
3277.000000	94.668967 
3276.000000	94.672201 
3275.000000	94.675861 
3274.000000	94.679824 
3273.000000	94.683766 
3272.000000	94.687497 
3271.000000	94.690974 
3270.000000	94.694189 
3269.000000	94.697236 
3268.000000	94.700393 
3267.000000	94.703928 
3266.000000	94.707800 
3265.000000	94.711623 
3264.000000	94.715039 
3263.000000	94.718052 
3262.000000	94.721003 
3261.000000	94.724218 
3260.000000	94.727754 
3259.000000	94.731447 
3258.000000	94.735110 
3257.000000	94.738696 
3256.000000	94.742291 
3255.000000	94.746000 
3254.000000	94.749849 
3253.000000	94.753766 
3252.000000	94.757607 
3251.000000	94.761236 
3250.000000	94.764623 
3249.000000	94.767893 
3248.000000	94.771257 
3247.000000	94.774825 
3246.000000	94.778508 
3245.000000	94.782118 
3244.000000	94.785565 
3243.000000	94.788932 
3242.000000	94.792391 
3241.000000	94.796036 
3240.000000	94.799812 
3239.000000	94.803581 
3238.000000	94.807252 
3237.000000	94.810832 
3236.000000	94.814395 
3235.000000	94.818027 
3234.000000	94.821774 
3233.000000	94.825623 
3232.000000	94.829535 
3231.000000	94.833456 
3230.000000	94.837350 
3229.000000	94.841223 
3228.000000	94.845138 
3227.000000	94.849163 
3226.000000	94.853307 
3225.000000	94.857501 
3224.000000	94.861642 
3223.000000	94.865685 
3222.000000	94.869664 
3221.000000	94.873700 
3220.000000	94.877894 
3219.000000	94.882242 
3218.000000	94.886641 
3217.000000	94.890980 
3216.000000	94.895227 
3215.000000	94.899429 
3214.000000	94.903671 
3213.000000	94.908036 
3212.000000	94.912572 
3211.000000	94.917270 
3210.000000	94.922064 
3209.000000	94.926875 
3208.000000	94.931674 
3207.000000	94.936469 
3206.000000	94.941270 
3205.000000	94.946057 
3204.000000	94.950797 
3203.000000	94.955487 
3202.000000	94.960165 
3201.000000	94.964895 
3200.000000	94.969734 
3199.000000	94.974687 
3198.000000	94.979715 
3197.000000	94.984753 
3196.000000	94.989757 
3195.000000	94.994722 
3194.000000	94.999667 
3193.000000	95.004618 
3192.000000	95.009587 
3191.000000	95.014568 
3190.000000	95.019547 
3189.000000	95.024513 
