PE IR                   SPECTRUM    ASCII       PEDS        1.60        
  -1
~SP.SP
22/12/06
11:58:26.00
23/01/09
15:35:51.00
Administrator

650.000000
4









FRONTIER FT-IR,CPU32 MAIN 00.09.9951 07-SEPTEMBER-2011 11:49:41
MIR TGS
MIR
OPTKBR
90694
0.200000

4.000000
STRONG
RATIO
SPECTRUM
MAGNITUDE
MIRACLE ATR
DOUBLE

COMBINED


0


#HDR
-1
-1
#GR
CM-1
%T
0.00002384185791015625
0.0
4000.000000
-1.000000
3351
8
95.901092
60.708565
#DATA
4000.000000	95.884434 
3999.000000	95.883364 
3998.000000	95.882641 
3997.000000	95.883096 
3996.000000	95.885537 
3995.000000	95.889344 
3994.000000	95.892243 
3993.000000	95.892169 
3992.000000	95.888958 
3991.000000	95.884744 
3990.000000	95.882435 
3989.000000	95.883234 
3988.000000	95.886028 
3987.000000	95.888779 
3986.000000	95.890303 
3985.000000	95.890530 
3984.000000	95.889607 
3983.000000	95.887465 
3982.000000	95.884325 
3981.000000	95.881043 
3980.000000	95.878656 
3979.000000	95.877675 
3978.000000	95.877833 
3977.000000	95.878240 
3976.000000	95.877731 
3975.000000	95.875496 
3974.000000	95.871842 
3973.000000	95.868349 
3972.000000	95.866856 
3971.000000	95.868134 
3970.000000	95.871636 
3969.000000	95.876196 
3968.000000	95.880793 
3967.000000	95.884655 
3966.000000	95.887019 
3965.000000	95.887178 
3964.000000	95.884944 
3963.000000	95.881059 
3962.000000	95.877045 
3961.000000	95.874410 
3960.000000	95.873756 
3959.000000	95.874656 
3958.000000	95.876332 
3957.000000	95.878243 
3956.000000	95.880093 
3955.000000	95.881589 
3954.000000	95.882572 
3953.000000	95.883259 
3952.000000	95.884032 
3951.000000	95.884930 
3950.000000	95.885492 
3949.000000	95.885206 
3948.000000	95.884016 
3947.000000	95.882318 
3946.000000	95.880598 
3945.000000	95.879134 
3944.000000	95.878009 
3943.000000	95.877260 
3942.000000	95.876819 
3941.000000	95.876401 
3940.000000	95.875607 
3939.000000	95.874196 
3938.000000	95.872313 
3937.000000	95.870340 
3936.000000	95.868683 
3935.000000	95.867737 
3934.000000	95.867946 
3933.000000	95.869542 
3932.000000	95.872016 
3931.000000	95.874223 
3930.000000	95.875253 
3929.000000	95.874981 
3928.000000	95.873708 
3927.000000	95.871528 
3926.000000	95.868469 
3925.000000	95.865322 
3924.000000	95.863598 
3923.000000	95.863959 
3922.000000	95.865176 
3921.000000	95.865403 
3920.000000	95.864369 
3919.000000	95.863591 
3918.000000	95.864544 
3917.000000	95.867080 
3916.000000	95.869738 
3915.000000	95.871091 
3914.000000	95.870650 
3913.000000	95.868946 
3912.000000	95.867067 
3911.000000	95.865395 
3910.000000	95.863158 
3909.000000	95.859381 
3908.000000	95.854473 
3907.000000	95.850259 
3906.000000	95.848290 
3905.000000	95.848059 
3904.000000	95.847301 
3903.000000	95.844616 
3902.000000	95.841248 
3901.000000	95.839688 
3900.000000	95.841160 
3899.000000	95.844790 
3898.000000	95.848449 
3897.000000	95.850253 
3896.000000	95.849583 
3895.000000	95.847217 
3894.000000	95.844607 
3893.000000	95.842434 
3892.000000	95.840219 
3891.000000	95.837429 
3890.000000	95.834962 
3889.000000	95.833756 
3888.000000	95.833269 
3887.000000	95.832446 
3886.000000	95.830953 
3885.000000	95.829245 
3884.000000	95.828213 
3883.000000	95.828214 
3882.000000	95.829690 
3881.000000	95.833530 
3880.000000	95.839082 
3879.000000	95.843920 
3878.000000	95.846302 
3877.000000	95.846311 
3876.000000	95.845466 
3875.000000	95.844991 
3874.000000	95.844579 
3873.000000	95.843352 
3872.000000	95.840818 
3871.000000	95.837255 
3870.000000	95.833924 
3869.000000	95.832490 
3868.000000	95.833489 
3867.000000	95.835076 
3866.000000	95.835090 
3865.000000	95.833837 
3864.000000	95.833224 
3863.000000	95.834172 
3862.000000	95.835994 
3861.000000	95.837494 
3860.000000	95.838140 
3859.000000	95.838014 
3858.000000	95.837885 
3857.000000	95.838870 
3856.000000	95.841615 
3855.000000	95.845244 
3854.000000	95.847272 
3853.000000	95.846580 
3852.000000	95.845789 
3851.000000	95.846769 
3850.000000	95.848365 
3849.000000	95.850128 
3848.000000	95.852785 
3847.000000	95.856048 
3846.000000	95.858312 
3845.000000	95.858336 
3844.000000	95.856461 
3843.000000	95.854217 
3842.000000	95.852978 
3841.000000	95.852891 
3840.000000	95.853385 
3839.000000	95.854073 
3838.000000	95.854965 
3837.000000	95.855891 
3836.000000	95.856423 
3835.000000	95.856287 
3834.000000	95.855716 
3833.000000	95.855233 
3832.000000	95.855190 
3831.000000	95.855602 
3830.000000	95.856283 
3829.000000	95.856888 
3828.000000	95.856939 
3827.000000	95.855964 
3826.000000	95.854004 
3825.000000	95.851852 
3824.000000	95.850473 
3823.000000	95.850203 
3822.000000	95.850390 
3821.000000	95.849744 
3820.000000	95.848461 
3819.000000	95.848144 
3818.000000	95.849391 
3817.000000	95.851677 
3816.000000	95.853825 
3815.000000	95.854880 
3814.000000	95.854883 
3813.000000	95.854022 
3812.000000	95.852596 
3811.000000	95.851584 
3810.000000	95.851788 
3809.000000	95.852910 
3808.000000	95.853684 
3807.000000	95.853035 
3806.000000	95.851322 
3805.000000	95.849777 
3804.000000	95.848752 
3803.000000	95.847680 
3802.000000	95.845758 
3801.000000	95.842479 
3800.000000	95.838803 
3799.000000	95.836116 
3798.000000	95.834968 
3797.000000	95.835710 
3796.000000	95.838093 
3795.000000	95.840838 
3794.000000	95.842376 
3793.000000	95.841931 
3792.000000	95.839835 
3791.000000	95.837202 
3790.000000	95.835137 
3789.000000	95.834210 
3788.000000	95.834468 
3787.000000	95.835510 
3786.000000	95.836548 
3785.000000	95.836888 
3784.000000	95.836624 
3783.000000	95.836629 
3782.000000	95.837635 
3781.000000	95.839444 
3780.000000	95.841045 
3779.000000	95.841461 
3778.000000	95.840642 
3777.000000	95.839132 
3776.000000	95.837238 
3775.000000	95.834978 
3774.000000	95.832696 
3773.000000	95.831151 
3772.000000	95.831030 
3771.000000	95.832355 
3770.000000	95.834379 
3769.000000	95.836197 
3768.000000	95.837358 
3767.000000	95.837563 
3766.000000	95.836622 
3765.000000	95.834709 
3764.000000	95.832143 
3763.000000	95.828669 
3762.000000	95.823587 
3761.000000	95.817723 
3760.000000	95.814223 
3759.000000	95.815344 
3758.000000	95.819765 
3757.000000	95.824280 
3756.000000	95.827189 
3755.000000	95.828187 
3754.000000	95.827171 
3753.000000	95.825387 
3752.000000	95.826103 
3751.000000	95.830463 
3750.000000	95.834003 
3749.000000	95.832612 
3748.000000	95.827908 
3747.000000	95.823569 
3746.000000	95.821629 
3745.000000	95.820012 
3744.000000	95.813347 
3743.000000	95.803099 
3742.000000	95.793636 
3741.000000	95.784451 
3740.000000	95.778472 
3739.000000	95.779617 
3738.000000	95.783848 
3737.000000	95.782542 
3736.000000	95.775206 
3735.000000	95.772195 
3734.000000	95.780403 
3733.000000	95.793522 
3732.000000	95.800897 
3731.000000	95.798769 
3730.000000	95.788764 
3729.000000	95.772364 
3728.000000	95.751734 
3727.000000	95.732494 
3726.000000	95.720791 
3725.000000	95.717409 
3724.000000	95.716221 
3723.000000	95.710722 
3722.000000	95.700517 
3721.000000	95.690205 
3720.000000	95.683729 
3719.000000	95.680105 
3718.000000	95.674774 
3717.000000	95.664319 
3716.000000	95.649253 
3715.000000	95.631629 
3714.000000	95.612491 
3713.000000	95.592201 
3712.000000	95.571105 
3711.000000	95.549331 
3710.000000	95.526943 
3709.000000	95.504155 
3708.000000	95.482107 
3707.000000	95.462754 
3706.000000	95.446785 
3705.000000	95.431611 
3704.000000	95.412112 
3703.000000	95.384466 
3702.000000	95.349746 
3701.000000	95.314020 
3700.000000	95.283779 
3699.000000	95.260858 
3698.000000	95.242101 
3697.000000	95.223650 
3696.000000	95.204607 
3695.000000	95.186636 
3694.000000	95.171678 
3693.000000	95.161020 
3692.000000	95.154787 
3691.000000	95.150063 
3690.000000	95.141176 
3689.000000	95.124723 
3688.000000	95.104631 
3687.000000	95.088046 
3686.000000	95.076731 
3685.000000	95.066965 
3684.000000	95.055611 
3683.000000	95.041763 
3682.000000	95.023946 
3681.000000	94.999544 
3680.000000	94.968033 
3679.000000	94.933824 
3678.000000	94.902537 
3677.000000	94.875679 
3676.000000	94.850276 
3675.000000	94.825119 
3674.000000	94.804699 
3673.000000	94.789457 
3672.000000	94.771419 
3671.000000	94.743631 
3670.000000	94.705562 
3669.000000	94.664595 
3668.000000	94.630885 
3667.000000	94.606667 
3666.000000	94.586485 
3665.000000	94.563903 
3664.000000	94.535997 
3663.000000	94.504908 
3662.000000	94.475433 
3661.000000	94.450643 
3660.000000	94.430356 
3659.000000	94.413224 
3658.000000	94.398292 
3657.000000	94.384239 
3656.000000	94.367900 
3655.000000	94.346468 
3654.000000	94.318088 
3653.000000	94.281850 
3652.000000	94.241351 
3651.000000	94.205254 
3650.000000	94.180595 
3649.000000	94.167070 
3648.000000	94.159800 
3647.000000	94.154665 
3646.000000	94.149870 
3645.000000	94.144510 
3644.000000	94.137891 
3643.000000	94.128957 
3642.000000	94.115695 
3641.000000	94.095746 
3640.000000	94.068874 
3639.000000	94.038552 
3638.000000	94.010518 
3637.000000	93.988793 
3636.000000	93.972381 
3635.000000	93.956443 
3634.000000	93.937139 
3633.000000	93.915327 
3632.000000	93.895059 
3631.000000	93.880190 
3630.000000	93.871431 
3629.000000	93.863000 
3628.000000	93.849000 
3627.000000	93.833071 
3626.000000	93.820619 
3625.000000	93.813295 
3624.000000	93.811024 
3623.000000	93.811714 
3622.000000	93.814143 
3621.000000	93.821563 
3620.000000	93.838923 
3619.000000	93.865415 
3618.000000	93.894099 
3617.000000	93.919968 
3616.000000	93.943343 
3615.000000	93.966435 
3614.000000	93.990134 
3613.000000	94.014592 
3612.000000	94.041520 
3611.000000	94.073456 
3610.000000	94.110499 
3609.000000	94.149112 
3608.000000	94.184055 
3607.000000	94.211991 
3606.000000	94.232882 
3605.000000	94.248285 
3604.000000	94.260108 
3603.000000	94.270774 
3602.000000	94.283297 
3601.000000	94.300202 
3600.000000	94.320957 
3599.000000	94.340701 
3598.000000	94.353192 
3597.000000	94.356997 
3596.000000	94.356896 
3595.000000	94.358813 
3594.000000	94.364482 
3593.000000	94.372070 
3592.000000	94.380096 
3591.000000	94.389307 
3590.000000	94.400899 
3589.000000	94.413994 
3588.000000	94.425082 
3587.000000	94.430784 
3586.000000	94.430974 
3585.000000	94.427917 
3584.000000	94.424036 
3583.000000	94.421282 
3582.000000	94.420382 
3581.000000	94.420429 
3580.000000	94.419938 
3579.000000	94.418665 
3578.000000	94.417578 
3577.000000	94.417048 
3576.000000	94.415162 
3575.000000	94.408634 
3574.000000	94.396126 
3573.000000	94.380298 
3572.000000	94.366029 
3571.000000	94.356609 
3570.000000	94.352113 
3569.000000	94.350499 
3568.000000	94.349673 
3567.000000	94.348506 
3566.000000	94.347206 
3565.000000	94.347290 
3564.000000	94.350299 
3563.000000	94.355707 
3562.000000	94.359865 
3561.000000	94.358220 
3560.000000	94.349808 
3559.000000	94.338737 
3558.000000	94.330171 
3557.000000	94.325239 
3556.000000	94.321122 
3555.000000	94.315164 
3554.000000	94.307611 
3553.000000	94.300195 
3552.000000	94.293543 
3551.000000	94.287156 
3550.000000	94.281354 
3549.000000	94.277582 
3548.000000	94.276594 
3547.000000	94.277176 
3546.000000	94.277537 
3545.000000	94.277541 
3544.000000	94.278137 
3543.000000	94.278879 
3542.000000	94.277715 
3541.000000	94.273408 
3540.000000	94.267125 
3539.000000	94.261352 
3538.000000	94.257652 
3537.000000	94.255692 
3536.000000	94.254057 
3535.000000	94.251573 
3534.000000	94.248003 
3533.000000	94.243758 
3532.000000	94.239320 
3531.000000	94.234949 
3530.000000	94.230743 
3529.000000	94.226855 
3528.000000	94.223428 
3527.000000	94.220360 
3526.000000	94.217311 
3525.000000	94.213984 
3524.000000	94.210349 
3523.000000	94.206554 
3522.000000	94.202767 
3521.000000	94.199106 
3520.000000	94.195627 
3519.000000	94.192289 
3518.000000	94.188961 
3517.000000	94.185534 
3516.000000	94.182028 
3515.000000	94.178529 
3514.000000	94.175042 
3513.000000	94.171454 
3512.000000	94.167674 
3511.000000	94.163747 
3510.000000	94.159816 
3509.000000	94.155998 
3508.000000	94.152290 
3507.000000	94.148602 
3506.000000	94.144818 
3505.000000	94.140879 
3504.000000	94.136810 
3503.000000	94.132700 
3502.000000	94.128616 
3501.000000	94.124539 
3500.000000	94.120424 
3499.000000	94.116281 
3498.000000	94.112171 
3497.000000	94.108145 
3496.000000	94.104201 
3495.000000	94.100255 
3494.000000	94.096154 
3493.000000	94.091802 
3492.000000	94.087259 
3491.000000	94.082765 
3490.000000	94.078552 
3489.000000	94.074672 
3488.000000	94.070930 
3487.000000	94.067006 
3486.000000	94.062702 
3485.000000	94.058039 
3484.000000	94.053201 
3483.000000	94.048384 
3482.000000	94.043686 
3481.000000	94.039091 
3480.000000	94.034511 
3479.000000	94.029826 
3478.000000	94.024918 
3477.000000	94.019706 
3476.000000	94.014211 
3475.000000	94.008607 
3474.000000	94.003168 
3473.000000	93.998085 
3472.000000	93.993280 
3471.000000	93.988389 
3470.000000	93.983052 
3469.000000	93.977245 
3468.000000	93.971364 
3467.000000	93.965912 
3466.000000	93.961036 
3465.000000	93.956359 
3464.000000	93.951273 
3463.000000	93.945438 
3462.000000	93.939041 
3461.000000	93.932677 
3460.000000	93.926930 
3459.000000	93.921975 
3458.000000	93.917469 
3457.000000	93.912799 
3456.000000	93.907533 
3455.000000	93.901655 
3454.000000	93.895439 
3453.000000	93.889200 
3452.000000	93.883113 
3451.000000	93.877144 
3450.000000	93.871082 
3449.000000	93.864845 
3448.000000	93.858905 
3447.000000	93.854191 
3446.000000	93.851178 
3445.000000	93.849031 
3444.000000	93.845897 
3443.000000	93.840222 
3442.000000	93.831854 
3441.000000	93.822233 
3440.000000	93.813372 
3439.000000	93.806182 
3438.000000	93.799753 
3437.000000	93.792432 
3436.000000	93.783922 
3435.000000	93.776015 
3434.000000	93.770845 
3433.000000	93.768800 
3432.000000	93.768440 
3431.000000	93.768059 
3430.000000	93.766799 
3429.000000	93.764415 
3428.000000	93.760804 
3427.000000	93.756229 
3426.000000	93.751625 
3425.000000	93.748044 
3424.000000	93.745622 
3423.000000	93.743158 
3422.000000	93.739002 
3421.000000	93.732640 
3420.000000	93.725490 
3419.000000	93.719893 
3418.000000	93.716984 
3417.000000	93.715602 
3416.000000	93.713250 
3415.000000	93.708271 
3414.000000	93.701211 
3413.000000	93.694302 
3412.000000	93.689642 
3411.000000	93.687701 
3410.000000	93.687327 
3409.000000	93.687029 
3408.000000	93.686381 
3407.000000	93.686222 
3406.000000	93.687558 
3405.000000	93.690293 
3404.000000	93.692858 
3403.000000	93.693117 
3402.000000	93.689999 
3401.000000	93.684657 
3400.000000	93.680036 
3399.000000	93.678688 
3398.000000	93.680737 
3397.000000	93.683958 
3396.000000	93.685783 
3395.000000	93.685399 
3394.000000	93.683881 
3393.000000	93.682829 
3392.000000	93.683109 
3391.000000	93.684458 
3390.000000	93.685747 
3389.000000	93.685605 
3388.000000	93.683411 
3387.000000	93.680064 
3386.000000	93.677575 
3385.000000	93.677404 
3384.000000	93.679270 
3383.000000	93.681727 
3382.000000	93.683838 
3381.000000	93.685976 
3380.000000	93.688855 
3379.000000	93.692256 
3378.000000	93.695035 
3377.000000	93.696324 
3376.000000	93.696453 
3375.000000	93.696677 
3374.000000	93.698116 
3373.000000	93.701006 
3372.000000	93.704745 
3371.000000	93.708410 
3370.000000	93.711256 
3369.000000	93.712949 
3368.000000	93.713617 
3367.000000	93.713834 
3366.000000	93.714402 
3365.000000	93.715931 
3364.000000	93.718570 
3363.000000	93.722115 
3362.000000	93.726224 
3361.000000	93.730483 
3360.000000	93.734418 
3359.000000	93.737708 
3358.000000	93.740488 
3357.000000	93.743236 
3356.000000	93.746270 
3355.000000	93.749362 
3354.000000	93.752003 
3353.000000	93.753989 
3352.000000	93.755673 
3351.000000	93.757729 
3350.000000	93.760594 
3349.000000	93.764199 
3348.000000	93.768039 
3347.000000	93.771580 
3346.000000	93.774722 
3345.000000	93.777765 
3344.000000	93.781024 
3343.000000	93.784496 
3342.000000	93.787920 
3341.000000	93.791089 
3340.000000	93.794027 
3339.000000	93.796951 
3338.000000	93.800092 
3337.000000	93.803549 
3336.000000	93.807253 
3335.000000	93.810972 
3334.000000	93.814421 
3333.000000	93.817484 
3332.000000	93.820311 
3331.000000	93.823257 
3330.000000	93.826574 
3329.000000	93.830224 
3328.000000	93.833941 
3327.000000	93.837450 
3326.000000	93.840679 
3325.000000	93.843766 
3324.000000	93.846919 
3323.000000	93.850259 
3322.000000	93.853760 
3321.000000	93.857282 
3320.000000	93.860680 
3319.000000	93.863906 
3318.000000	93.867009 
3317.000000	93.870038 
3316.000000	93.872957 
3315.000000	93.875669 
3314.000000	93.878079 
3313.000000	93.880120 
3312.000000	93.881806 
3311.000000	93.883396 
3310.000000	93.885483 
3309.000000	93.888612 
3308.000000	93.892771 
3307.000000	93.897242 
3306.000000	93.901176 
3305.000000	93.904421 
3304.000000	93.907520 
3303.000000	93.910994 
3302.000000	93.914728 
3301.000000	93.918174 
3300.000000	93.921043 
3299.000000	93.923600 
3298.000000	93.926342 
3297.000000	93.929566 
3296.000000	93.933303 
3295.000000	93.937437 
3294.000000	93.941641 
3293.000000	93.945333 
3292.000000	93.948028 
3291.000000	93.949803 
3290.000000	93.951468 
3289.000000	93.953960 
3288.000000	93.957578 
3287.000000	93.961847 
3286.000000	93.965904 
3285.000000	93.969213 
3284.000000	93.971807 
3283.000000	93.974107 
3282.000000	93.976613 
3281.000000	93.979658 
3280.000000	93.983219 
3279.000000	93.986913 
3278.000000	93.990354 
3277.000000	93.993606 
3276.000000	93.997171 
3275.000000	94.001439 
3274.000000	94.006245 
3273.000000	94.011039 
3272.000000	94.015426 
3271.000000	94.019414 
3270.000000	94.023216 
3269.000000	94.027014 
3268.000000	94.030931 
3267.000000	94.035060 
3266.000000	94.039374 
3265.000000	94.043673 
3264.000000	94.047717 
3263.000000	94.051451 
3262.000000	94.055138 
3261.000000	94.059181 
3260.000000	94.063689 
3259.000000	94.068201 
3258.000000	94.071970 
3257.000000	94.074708 
3256.000000	94.077015 
3255.000000	94.079900 
3254.000000	94.083851 
3253.000000	94.088499 
3252.000000	94.093118 
3251.000000	94.097248 
3250.000000	94.100813 
3249.000000	94.104041 
3248.000000	94.107465 
3247.000000	94.111614 
3246.000000	94.116321 
3245.000000	94.120512 
3244.000000	94.123199 
3243.000000	94.124599 
3242.000000	94.126114 
3241.000000	94.128939 
3240.000000	94.132880 
3239.000000	94.136815 
3238.000000	94.140013 
3237.000000	94.142836 
3236.000000	94.146191 
3235.000000	94.150609 
3234.000000	94.155910 
3233.000000	94.161465 
3232.000000	94.166582 
3231.000000	94.170823 
3230.000000	94.174281 
3229.000000	94.177652 
3228.000000	94.181805 
3227.000000	94.187085 
3226.000000	94.193039 
3225.000000	94.198755 
3224.000000	94.203513 
3223.000000	94.207218 
3222.000000	94.210357 
3221.000000	94.213671 
3220.000000	94.217612 
3219.000000	94.222017 
3218.000000	94.226325 
3217.000000	94.230183 
3216.000000	94.233811 
3215.000000	94.237765 
3214.000000	94.242409 
3213.000000	94.247738 
3212.000000	94.253523 
3211.000000	94.259432 
3210.000000	94.265086 
3209.000000	94.270258 
3208.000000	94.275107 
3207.000000	94.280055 
3206.000000	94.285339 
3205.000000	94.290752 
3204.000000	94.295866 
3203.000000	94.300465 
3202.000000	94.304700 
3201.000000	94.308992 
3200.000000	94.313787 
3199.000000	94.319287 
3198.000000	94.325337 
3197.000000	94.331485 
3196.000000	94.337287 
3195.000000	94.342626 
3194.000000	94.347707 
3193.000000	94.352847 
3192.000000	94.358229 
3191.000000	94.363806 
3190.000000	94.369366 
3189.000000	94.374706 
