PE IR                   SPECTRUM    ASCII       PEDS        1.60        
  -1
~SP.SP
22/12/06
12:13:43.00
23/01/09
14:30:44.00
Administrator

650.000000
4









FRONTIER FT-IR,CPU32 MAIN 00.09.9951 07-SEPTEMBER-2011 11:49:41
MIR TGS
MIR
OPTKBR
90694
0.200000

4.000000
STRONG
RATIO
SPECTRUM
MAGNITUDE
MIRACLE ATR
DOUBLE

COMBINED


0


#HDR
-1
-1
#GR
CM-1
%T
0.00002384185791015625
0.0
4000.000000
-1.000000
3351
8
85.018979
66.097334
#DATA
4000.000000	85.000735 
3999.000000	84.999285 
3998.000000	84.997725 
3997.000000	84.996506 
3996.000000	84.996158 
3995.000000	84.996752 
3994.000000	84.997410 
3993.000000	84.996893 
3992.000000	84.994611 
3991.000000	84.991120 
3990.000000	84.987982 
3989.000000	84.986393 
3988.000000	84.986400 
3987.000000	84.987183 
3986.000000	84.987862 
3985.000000	84.987928 
3984.000000	84.986980 
3983.000000	84.984642 
3982.000000	84.980966 
3981.000000	84.976687 
3980.000000	84.972834 
3979.000000	84.970099 
3978.000000	84.968643 
3977.000000	84.968179 
3976.000000	84.968046 
3975.000000	84.967473 
3974.000000	84.966148 
3973.000000	84.964516 
3972.000000	84.963362 
3971.000000	84.963146 
3970.000000	84.963845 
3969.000000	84.965135 
3968.000000	84.966526 
3967.000000	84.967487 
3966.000000	84.967576 
3965.000000	84.966658 
3964.000000	84.964875 
3963.000000	84.962506 
3962.000000	84.959989 
3961.000000	84.957894 
3960.000000	84.956660 
3959.000000	84.956371 
3958.000000	84.956830 
3957.000000	84.957665 
3956.000000	84.958306 
3955.000000	84.958186 
3954.000000	84.957144 
3953.000000	84.955587 
3952.000000	84.954090 
3951.000000	84.952852 
3950.000000	84.951669 
3949.000000	84.950292 
3948.000000	84.948746 
3947.000000	84.947226 
3946.000000	84.945839 
3945.000000	84.944524 
3944.000000	84.943264 
3943.000000	84.942239 
3942.000000	84.941633 
3941.000000	84.941364 
3940.000000	84.941070 
3939.000000	84.940451 
3938.000000	84.939526 
3937.000000	84.938491 
3936.000000	84.937464 
3935.000000	84.936474 
3934.000000	84.935557 
3933.000000	84.934789 
3932.000000	84.934174 
3931.000000	84.933611 
3930.000000	84.932990 
3929.000000	84.932219 
3928.000000	84.931261 
3927.000000	84.930146 
3926.000000	84.928976 
3925.000000	84.927862 
3924.000000	84.926848 
3923.000000	84.925877 
3922.000000	84.924910 
3921.000000	84.923936 
3920.000000	84.922959 
3919.000000	84.921980 
3918.000000	84.920999 
3917.000000	84.920015 
3916.000000	84.919030 
3915.000000	84.918051 
3914.000000	84.917079 
3913.000000	84.916114 
3912.000000	84.915151 
3911.000000	84.914190 
3910.000000	84.913235 
3909.000000	84.912294 
3908.000000	84.911367 
3907.000000	84.910448 
3906.000000	84.909529 
3905.000000	84.908598 
3904.000000	84.907644 
3903.000000	84.906662 
3902.000000	84.905653 
3901.000000	84.904628 
3900.000000	84.903605 
3899.000000	84.902605 
3898.000000	84.901651 
3897.000000	84.900760 
3896.000000	84.899937 
3895.000000	84.899194 
3894.000000	84.898527 
3893.000000	84.897896 
3892.000000	84.897120 
3891.000000	84.896143 
3890.000000	84.895432 
3889.000000	84.895398 
3888.000000	84.895573 
3887.000000	84.895264 
3886.000000	84.894462 
3885.000000	84.893824 
3884.000000	84.893814 
3883.000000	84.893646 
3882.000000	84.892170 
3881.000000	84.889850 
3880.000000	84.888227 
3879.000000	84.888188 
3878.000000	84.889284 
3877.000000	84.890234 
3876.000000	84.890626 
3875.000000	84.891267 
3874.000000	84.892697 
3873.000000	84.894389 
3872.000000	84.894742 
3871.000000	84.892629 
3870.000000	84.889630 
3869.000000	84.889152 
3868.000000	84.892131 
3867.000000	84.894956 
3866.000000	84.894310 
3865.000000	84.891673 
3864.000000	84.889766 
3863.000000	84.888720 
3862.000000	84.887443 
3861.000000	84.886089 
3860.000000	84.886232 
3859.000000	84.888986 
3858.000000	84.894375 
3857.000000	84.902568 
3856.000000	84.912941 
3855.000000	84.921817 
3854.000000	84.923836 
3853.000000	84.920372 
3852.000000	84.920140 
3851.000000	84.923233 
3850.000000	84.920847 
3849.000000	84.912333 
3848.000000	84.904672 
3847.000000	84.901120 
3846.000000	84.899799 
3845.000000	84.898325 
3844.000000	84.896436 
3843.000000	84.895624 
3842.000000	84.897297 
3841.000000	84.901032 
3840.000000	84.904857 
3839.000000	84.907528 
3838.000000	84.909623 
3837.000000	84.912536 
3836.000000	84.915822 
3835.000000	84.916944 
3834.000000	84.914119 
3833.000000	84.908487 
3832.000000	84.902995 
3831.000000	84.899802 
3830.000000	84.898727 
3829.000000	84.897892 
3828.000000	84.895784 
3827.000000	84.892755 
3826.000000	84.890550 
3825.000000	84.890305 
3824.000000	84.891014 
3823.000000	84.890661 
3822.000000	84.888368 
3821.000000	84.885550 
3820.000000	84.885132 
3819.000000	84.887405 
3818.000000	84.888338 
3817.000000	84.885994 
3816.000000	84.882760 
3815.000000	84.881383 
3814.000000	84.881803 
3813.000000	84.880445 
3812.000000	84.875828 
3811.000000	84.871694 
3810.000000	84.871010 
3809.000000	84.871714 
3808.000000	84.870224 
3807.000000	84.866599 
3806.000000	84.865111 
3805.000000	84.867855 
3804.000000	84.870837 
3803.000000	84.870079 
3802.000000	84.866041 
3801.000000	84.861460 
3800.000000	84.859077 
3799.000000	84.856447 
3798.000000	84.847964 
3797.000000	84.835885 
3796.000000	84.827372 
3795.000000	84.824533 
3794.000000	84.823683 
3793.000000	84.819996 
3792.000000	84.812674 
3791.000000	84.804439 
3790.000000	84.797832 
3789.000000	84.793897 
3788.000000	84.792889 
3787.000000	84.793916 
3786.000000	84.795163 
3785.000000	84.795937 
3784.000000	84.798535 
3783.000000	84.805374 
3782.000000	84.815143 
3781.000000	84.823332 
3780.000000	84.826206 
3779.000000	84.823194 
3778.000000	84.816486 
3777.000000	84.807949 
3776.000000	84.798163 
3775.000000	84.789746 
3774.000000	84.786863 
3773.000000	84.790474 
3772.000000	84.797020 
3771.000000	84.802885 
3770.000000	84.808099 
3769.000000	84.814319 
3768.000000	84.819700 
3767.000000	84.819532 
3766.000000	84.813399 
3765.000000	84.807402 
3764.000000	84.806406 
3763.000000	84.807907 
3762.000000	84.806206 
3761.000000	84.801091 
3760.000000	84.797601 
3759.000000	84.798099 
3758.000000	84.801193 
3757.000000	84.806446 
3756.000000	84.814695 
3755.000000	84.825264 
3754.000000	84.835970 
3753.000000	84.847045 
3752.000000	84.859498 
3751.000000	84.871248 
3750.000000	84.879712 
3749.000000	84.885604 
3748.000000	84.888997 
3747.000000	84.885406 
3746.000000	84.872114 
3745.000000	84.852196 
3744.000000	84.834372 
3743.000000	84.830754 
3742.000000	84.833331 
3741.000000	84.819358 
3740.000000	84.794500 
3739.000000	84.781016 
3738.000000	84.779687 
3737.000000	84.776245 
3736.000000	84.765520 
3735.000000	84.756886 
3734.000000	84.756296 
3733.000000	84.757145 
3732.000000	84.752939 
3731.000000	84.745269 
3730.000000	84.734841 
3729.000000	84.717337 
3728.000000	84.693165 
3727.000000	84.671304 
3726.000000	84.659386 
3725.000000	84.655503 
3724.000000	84.651268 
3723.000000	84.641932 
3722.000000	84.631037 
3721.000000	84.623079 
3720.000000	84.617515 
3719.000000	84.610241 
3718.000000	84.599211 
3717.000000	84.587362 
3716.000000	84.579233 
3715.000000	84.576352 
3714.000000	84.576345 
3713.000000	84.574436 
3712.000000	84.564927 
3711.000000	84.545401 
3710.000000	84.518736 
3709.000000	84.489033 
3708.000000	84.459818 
3707.000000	84.435383 
3706.000000	84.417944 
3705.000000	84.404600 
3704.000000	84.389110 
3703.000000	84.367004 
3702.000000	84.339247 
3701.000000	84.311277 
3700.000000	84.287367 
3699.000000	84.265997 
3698.000000	84.242909 
3697.000000	84.217993 
3696.000000	84.195707 
3695.000000	84.179372 
3694.000000	84.169118 
3693.000000	84.164884 
3692.000000	84.166567 
3691.000000	84.168988 
3690.000000	84.162670 
3689.000000	84.144848 
3688.000000	84.125427 
3687.000000	84.113832 
3686.000000	84.104530 
3685.000000	84.086812 
3684.000000	84.061902 
3683.000000	84.040020 
3682.000000	84.026316 
3681.000000	84.017914 
3680.000000	84.010708 
3679.000000	84.004088 
3678.000000	83.996362 
3677.000000	83.981976 
3676.000000	83.959850 
3675.000000	83.941705 
3674.000000	83.940542 
3673.000000	83.945948 
3672.000000	83.937643 
3671.000000	83.916735 
3670.000000	83.894903 
3669.000000	83.878256 
3668.000000	83.866355 
3667.000000	83.850444 
3666.000000	83.825780 
3665.000000	83.798286 
3664.000000	83.774073 
3663.000000	83.755577 
3662.000000	83.744434 
3661.000000	83.742185 
3660.000000	83.748171 
3659.000000	83.759201 
3658.000000	83.770704 
3657.000000	83.779534 
3656.000000	83.786585 
3655.000000	83.795525 
3654.000000	83.805418 
3653.000000	83.810799 
3652.000000	83.813359 
3651.000000	83.817705 
3650.000000	83.820066 
3649.000000	83.817216 
3648.000000	83.815656 
3647.000000	83.819717 
3646.000000	83.824689 
3645.000000	83.824876 
3644.000000	83.820552 
3643.000000	83.816578 
3642.000000	83.816295 
3641.000000	83.818159 
3640.000000	83.818013 
3639.000000	83.814599 
3638.000000	83.811489 
3637.000000	83.813130 
3636.000000	83.819185 
3635.000000	83.826189 
3634.000000	83.833577 
3633.000000	83.844100 
3632.000000	83.858109 
3631.000000	83.871212 
3630.000000	83.877509 
3629.000000	83.874156 
3628.000000	83.869484 
3627.000000	83.872951 
3626.000000	83.876855 
3625.000000	83.874100 
3624.000000	83.873533 
3623.000000	83.882083 
3622.000000	83.896274 
3621.000000	83.910118 
3620.000000	83.920949 
3619.000000	83.929304 
3618.000000	83.937214 
3617.000000	83.945763 
3616.000000	83.953509 
3615.000000	83.959383 
3614.000000	83.964394 
3613.000000	83.970233 
3612.000000	83.978357 
3611.000000	83.988933 
3610.000000	84.000982 
3609.000000	84.013877 
3608.000000	84.027068 
3607.000000	84.038929 
3606.000000	84.047187 
3605.000000	84.051278 
3604.000000	84.054274 
3603.000000	84.060352 
3602.000000	84.070540 
3601.000000	84.083126 
3600.000000	84.096098 
3599.000000	84.107251 
3598.000000	84.113665 
3597.000000	84.114161 
3596.000000	84.110541 
3595.000000	84.105904 
3594.000000	84.103296 
3593.000000	84.104681 
3592.000000	84.110340 
3591.000000	84.119270 
3590.000000	84.130087 
3589.000000	84.139983 
3588.000000	84.145316 
3587.000000	84.145778 
3586.000000	84.145503 
3585.000000	84.146880 
3584.000000	84.148785 
3583.000000	84.151028 
3582.000000	84.153979 
3581.000000	84.156689 
3580.000000	84.158047 
3579.000000	84.158336 
3578.000000	84.158660 
3577.000000	84.159490 
3576.000000	84.160009 
3575.000000	84.158448 
3574.000000	84.154109 
3573.000000	84.148525 
3572.000000	84.144332 
3571.000000	84.142729 
3570.000000	84.142248 
3569.000000	84.139990 
3568.000000	84.134516 
3567.000000	84.128270 
3566.000000	84.125815 
3565.000000	84.128495 
3564.000000	84.133125 
3563.000000	84.136366 
3562.000000	84.137064 
3561.000000	84.135279 
3560.000000	84.132139 
3559.000000	84.129596 
3558.000000	84.128704 
3557.000000	84.128510 
3556.000000	84.127289 
3555.000000	84.124355 
3554.000000	84.120513 
3553.000000	84.117178 
3552.000000	84.115191 
3551.000000	84.114405 
3550.000000	84.114043 
3549.000000	84.113353 
3548.000000	84.111960 
3547.000000	84.109890 
3546.000000	84.107648 
3545.000000	84.105987 
3544.000000	84.105026 
3543.000000	84.104059 
3542.000000	84.102405 
3541.000000	84.100125 
3540.000000	84.097687 
3539.000000	84.095422 
3538.000000	84.093350 
3537.000000	84.091361 
3536.000000	84.089378 
3535.000000	84.087366 
3534.000000	84.085312 
3533.000000	84.083207 
3532.000000	84.081048 
3531.000000	84.078842 
3530.000000	84.076610 
3529.000000	84.074377 
3528.000000	84.072163 
3527.000000	84.069963 
3526.000000	84.067733 
3525.000000	84.065427 
3524.000000	84.063070 
3523.000000	84.060744 
3522.000000	84.058492 
3521.000000	84.056287 
3520.000000	84.054094 
3519.000000	84.051892 
3518.000000	84.049604 
3517.000000	84.047137 
3516.000000	84.044516 
3515.000000	84.041902 
3514.000000	84.039376 
3513.000000	84.036784 
3512.000000	84.033907 
3511.000000	84.030780 
3510.000000	84.027781 
3509.000000	84.025310 
3508.000000	84.023408 
3507.000000	84.021581 
3506.000000	84.019119 
3505.000000	84.015706 
3504.000000	84.011706 
3503.000000	84.007866 
3502.000000	84.004499 
3501.000000	84.001234 
3500.000000	83.997626 
3499.000000	83.993875 
3498.000000	83.990673 
3497.000000	83.988432 
3496.000000	83.986941 
3495.000000	83.985525 
3494.000000	83.983456 
3493.000000	83.980423 
3492.000000	83.976774 
3491.000000	83.973349 
3490.000000	83.970821 
3489.000000	83.969152 
3488.000000	83.967751 
3487.000000	83.966062 
3486.000000	83.963853 
3485.000000	83.961018 
3484.000000	83.957511 
3483.000000	83.953559 
3482.000000	83.949658 
3481.000000	83.946153 
3480.000000	83.942985 
3479.000000	83.939921 
3478.000000	83.936783 
3477.000000	83.933375 
3476.000000	83.929468 
3475.000000	83.925124 
3474.000000	83.920932 
3473.000000	83.917586 
3472.000000	83.915153 
3471.000000	83.912906 
3470.000000	83.910011 
3469.000000	83.906341 
3468.000000	83.902538 
3467.000000	83.899343 
3466.000000	83.896787 
3465.000000	83.894032 
3464.000000	83.890099 
3463.000000	83.884801 
3462.000000	83.879002 
3461.000000	83.873805 
3460.000000	83.869628 
3459.000000	83.866235 
3458.000000	83.863387 
3457.000000	83.861081 
3456.000000	83.859106 
3455.000000	83.856849 
3454.000000	83.853747 
3453.000000	83.849915 
3452.000000	83.846090 
3451.000000	83.842867 
3450.000000	83.840052 
3449.000000	83.836911 
3448.000000	83.833062 
3447.000000	83.828931 
3446.000000	83.825235 
3445.000000	83.822008 
3444.000000	83.818446 
3443.000000	83.813754 
3442.000000	83.807954 
3441.000000	83.801968 
3440.000000	83.796817 
3439.000000	83.792564 
3438.000000	83.788238 
3437.000000	83.782947 
3436.000000	83.777120 
3435.000000	83.772299 
3434.000000	83.769497 
3433.000000	83.768218 
3432.000000	83.767173 
3431.000000	83.765609 
3430.000000	83.763539 
3429.000000	83.761032 
3428.000000	83.757908 
3427.000000	83.754128 
3426.000000	83.750129 
3425.000000	83.746543 
3424.000000	83.743678 
3423.000000	83.741286 
3422.000000	83.738813 
3421.000000	83.735884 
3420.000000	83.732669 
3419.000000	83.729763 
3418.000000	83.727630 
3417.000000	83.726126 
3416.000000	83.724561 
3415.000000	83.722232 
3414.000000	83.718991 
3413.000000	83.715339 
3412.000000	83.712027 
3411.000000	83.709433 
3410.000000	83.707347 
3409.000000	83.705322 
3408.000000	83.703207 
3407.000000	83.701256 
3406.000000	83.699766 
3405.000000	83.698707 
3404.000000	83.697706 
3403.000000	83.696296 
3402.000000	83.694224 
3401.000000	83.691628 
3400.000000	83.689067 
3399.000000	83.687266 
3398.000000	83.686609 
3397.000000	83.686828 
3396.000000	83.687074 
3395.000000	83.686577 
3394.000000	83.685251 
3393.000000	83.683655 
3392.000000	83.682466 
3391.000000	83.681908 
3390.000000	83.681669 
3389.000000	83.681212 
3388.000000	83.680181 
3387.000000	83.678645 
3386.000000	83.677094 
3385.000000	83.676100 
3384.000000	83.675810 
3383.000000	83.675808 
3382.000000	83.675619 
3381.000000	83.675332 
3380.000000	83.675482 
3379.000000	83.676284 
3378.000000	83.677203 
3377.000000	83.677472 
3376.000000	83.676954 
3375.000000	83.676331 
3374.000000	83.676475 
3373.000000	83.677750 
3372.000000	83.679954 
3371.000000	83.682627 
3370.000000	83.685224 
3369.000000	83.687121 
3368.000000	83.687818 
3367.000000	83.687310 
3366.000000	83.686209 
3365.000000	83.685421 
3364.000000	83.685592 
3363.000000	83.686904 
3362.000000	83.689182 
3361.000000	83.691976 
3360.000000	83.694668 
3359.000000	83.696771 
3358.000000	83.698285 
3357.000000	83.699667 
3356.000000	83.701342 
3355.000000	83.703208 
3354.000000	83.704706 
3353.000000	83.705410 
3352.000000	83.705505 
3351.000000	83.705732 
3350.000000	83.706746 
3349.000000	83.708568 
3348.000000	83.710624 
3347.000000	83.712359 
3346.000000	83.713791 
3345.000000	83.715363 
3344.000000	83.717377 
3343.000000	83.719672 
3342.000000	83.721794 
3341.000000	83.723366 
3340.000000	83.724304 
3339.000000	83.724841 
3338.000000	83.725455 
3337.000000	83.726595 
3336.000000	83.728347 
3335.000000	83.730305 
3334.000000	83.731848 
3333.000000	83.732697 
3332.000000	83.733147 
3331.000000	83.733805 
3330.000000	83.735053 
3329.000000	83.736703 
3328.000000	83.738140 
3327.000000	83.738848 
3326.000000	83.738822 
3325.000000	83.738555 
3324.000000	83.738645 
3323.000000	83.739379 
3322.000000	83.740686 
3321.000000	83.742315 
3320.000000	83.744051 
3319.000000	83.745827 
3318.000000	83.747610 
3317.000000	83.749107 
3316.000000	83.749723 
3315.000000	83.749002 
3314.000000	83.747150 
3313.000000	83.745038 
3312.000000	83.743579 
3311.000000	83.743215 
3310.000000	83.744000 
3309.000000	83.745802 
3308.000000	83.748198 
3307.000000	83.750377 
3306.000000	83.751678 
3305.000000	83.752304 
3304.000000	83.753132 
3303.000000	83.754660 
3302.000000	83.756338 
3301.000000	83.757169 
3300.000000	83.756856 
3299.000000	83.756083 
3298.000000	83.755776 
3297.000000	83.756330 
3296.000000	83.757660 
3295.000000	83.759642 
3294.000000	83.762091 
3293.000000	83.764357 
3292.000000	83.765472 
3291.000000	83.765000 
3290.000000	83.763651 
3289.000000	83.762805 
3288.000000	83.763215 
3287.000000	83.764415 
3286.000000	83.765317 
3285.000000	83.765219 
3284.000000	83.764179 
3283.000000	83.762705 
3282.000000	83.761363 
3281.000000	83.760583 
3280.000000	83.760512 
3279.000000	83.760927 
3278.000000	83.761501 
3277.000000	83.762259 
3276.000000	83.763599 
3275.000000	83.765736 
3274.000000	83.768216 
3273.000000	83.770123 
3272.000000	83.770801 
3271.000000	83.770286 
3270.000000	83.769141 
3269.000000	83.768022 
3268.000000	83.767377 
3267.000000	83.767387 
3266.000000	83.767950 
3265.000000	83.768692 
3264.000000	83.769151 
3263.000000	83.769106 
3262.000000	83.768773 
3261.000000	83.768565 
3260.000000	83.768617 
3259.000000	83.768610 
3258.000000	83.768145 
3257.000000	83.767282 
3256.000000	83.766611 
3255.000000	83.766695 
3254.000000	83.767483 
3253.000000	83.768325 
3252.000000	83.768605 
3251.000000	83.768267 
3250.000000	83.767679 
3249.000000	83.767158 
3248.000000	83.766772 
3247.000000	83.766481 
3246.000000	83.766225 
3245.000000	83.765864 
3244.000000	83.765251 
3243.000000	83.764461 
3242.000000	83.763823 
3241.000000	83.763560 
3240.000000	83.763468 
3239.000000	83.763125 
3238.000000	83.762381 
3237.000000	83.761530 
3236.000000	83.760991 
3235.000000	83.760917 
3234.000000	83.761104 
3233.000000	83.761189 
3232.000000	83.760939 
3231.000000	83.760408 
3230.000000	83.759916 
3229.000000	83.759865 
3228.000000	83.760492 
3227.000000	83.761726 
3226.000000	83.763173 
3225.000000	83.764222 
3224.000000	83.764396 
3223.000000	83.763704 
3222.000000	83.762717 
3221.000000	83.762240 
3220.000000	83.762648 
3219.000000	83.763676 
3218.000000	83.764707 
3217.000000	83.765270 
3216.000000	83.765330 
3215.000000	83.765207 
3214.000000	83.765312 
3213.000000	83.765878 
3212.000000	83.766835 
3211.000000	83.767927 
3210.000000	83.768942 
3209.000000	83.769841 
3208.000000	83.770712 
3207.000000	83.771649 
3206.000000	83.772650 
3205.000000	83.773572 
3204.000000	83.774238 
3203.000000	83.774631 
3202.000000	83.775012 
3201.000000	83.775784 
3200.000000	83.777204 
3199.000000	83.779249 
3198.000000	83.781643 
3197.000000	83.783974 
3196.000000	83.785876 
3195.000000	83.787236 
3194.000000	83.788261 
3193.000000	83.789274 
3192.000000	83.790428 
3191.000000	83.791634 
3190.000000	83.792734 
3189.000000	83.793668 
