PE IR                   SPECTRUM    ASCII       PEDS        1.60        
  -1
~SP.SP
22/12/06
12:00:20.00
23/01/09
14:37:21.00
Administrator

650.000000
4









FRONTIER FT-IR,CPU32 MAIN 00.09.9951 07-SEPTEMBER-2011 11:49:41
MIR TGS
MIR
OPTKBR
90694
0.200000

4.000000
STRONG
RATIO
SPECTRUM
MAGNITUDE
MIRACLE ATR
DOUBLE

COMBINED


0


#HDR
-1
-1
#GR
CM-1
%T
0.00002384185791015625
0.0
4000.000000
-1.000000
3351
8
94.751946
58.106013
#DATA
4000.000000	94.739575 
3999.000000	94.737427 
3998.000000	94.735255 
3997.000000	94.734040 
3996.000000	94.734374 
3995.000000	94.736220 
3994.000000	94.738516 
3993.000000	94.739912 
3992.000000	94.739879 
3991.000000	94.738871 
3990.000000	94.737904 
3989.000000	94.737637 
3988.000000	94.737970 
3987.000000	94.738442 
3986.000000	94.738735 
3985.000000	94.738685 
3984.000000	94.738013 
3983.000000	94.736437 
3982.000000	94.734123 
3981.000000	94.731801 
3980.000000	94.730297 
3979.000000	94.729955 
3978.000000	94.730455 
3977.000000	94.730982 
3976.000000	94.730621 
3975.000000	94.728822 
3974.000000	94.725775 
3973.000000	94.722505 
3972.000000	94.720340 
3971.000000	94.720096 
3970.000000	94.721714 
3969.000000	94.724430 
3968.000000	94.727249 
3967.000000	94.729381 
3966.000000	94.730409 
3965.000000	94.730254 
3964.000000	94.729046 
3963.000000	94.726976 
3962.000000	94.724291 
3961.000000	94.721434 
3960.000000	94.719024 
3959.000000	94.717668 
3958.000000	94.717653 
3957.000000	94.718666 
3956.000000	94.719855 
3955.000000	94.720323 
3954.000000	94.719810 
3953.000000	94.718880 
3952.000000	94.718363 
3951.000000	94.718557 
3950.000000	94.718971 
3949.000000	94.718799 
3948.000000	94.717540 
3947.000000	94.715189 
3946.000000	94.712260 
3945.000000	94.709634 
3944.000000	94.707843 
3943.000000	94.706666 
3942.000000	94.705444 
3941.000000	94.703896 
3940.000000	94.702476 
3939.000000	94.701807 
3938.000000	94.701991 
3937.000000	94.702531 
3936.000000	94.702791 
3935.000000	94.702394 
3934.000000	94.701452 
3933.000000	94.700440 
3932.000000	94.699762 
3931.000000	94.699428 
3930.000000	94.699204 
3929.000000	94.698988 
3928.000000	94.698775 
3927.000000	94.698389 
3926.000000	94.697458 
3925.000000	94.695760 
3924.000000	94.693536 
3923.000000	94.691267 
3922.000000	94.689152 
3921.000000	94.687086 
3920.000000	94.685502 
3919.000000	94.685591 
3918.000000	94.687718 
3917.000000	94.690152 
3916.000000	94.690537 
3915.000000	94.688598 
3914.000000	94.686514 
3913.000000	94.686682 
3912.000000	94.689501 
3911.000000	94.693115 
3910.000000	94.694767 
3909.000000	94.692781 
3908.000000	94.687966 
3907.000000	94.683077 
3906.000000	94.680238 
3905.000000	94.678321 
3904.000000	94.673638 
3903.000000	94.664039 
3902.000000	94.651998 
3901.000000	94.642861 
3900.000000	94.639775 
3899.000000	94.641833 
3898.000000	94.646038 
3897.000000	94.650026 
3896.000000	94.652740 
3895.000000	94.654169 
3894.000000	94.655393 
3893.000000	94.657519 
3892.000000	94.659799 
3891.000000	94.659931 
3890.000000	94.657114 
3889.000000	94.653360 
3888.000000	94.651046 
3887.000000	94.649799 
3886.000000	94.647332 
3885.000000	94.642688 
3884.000000	94.637912 
3883.000000	94.636356 
3882.000000	94.639077 
3881.000000	94.643589 
3880.000000	94.646300 
3879.000000	94.645812 
3878.000000	94.643756 
3877.000000	94.642781 
3876.000000	94.643742 
3875.000000	94.645156 
3874.000000	94.644825 
3873.000000	94.641965 
3872.000000	94.638188 
3871.000000	94.635466 
3870.000000	94.633398 
3869.000000	94.630823 
3868.000000	94.629151 
3867.000000	94.630620 
3866.000000	94.633921 
3865.000000	94.635533 
3864.000000	94.635050 
3863.000000	94.634897 
3862.000000	94.636197 
3861.000000	94.637960 
3860.000000	94.639269 
3859.000000	94.640856 
3858.000000	94.643899 
3857.000000	94.648330 
3856.000000	94.653362 
3855.000000	94.657832 
3854.000000	94.659935 
3853.000000	94.659055 
3852.000000	94.658090 
3851.000000	94.661057 
3850.000000	94.667614 
3849.000000	94.672677 
3848.000000	94.674577 
3847.000000	94.677082 
3846.000000	94.681759 
3845.000000	94.686081 
3844.000000	94.687388 
3843.000000	94.685589 
3842.000000	94.682875 
3841.000000	94.681755 
3840.000000	94.683171 
3839.000000	94.685916 
3838.000000	94.688366 
3837.000000	94.690295 
3836.000000	94.692446 
3835.000000	94.694752 
3834.000000	94.696276 
3833.000000	94.696786 
3832.000000	94.697179 
3831.000000	94.698211 
3830.000000	94.699762 
3829.000000	94.701244 
3828.000000	94.701907 
3827.000000	94.701158 
3826.000000	94.698932 
3825.000000	94.696091 
3824.000000	94.694235 
3823.000000	94.694431 
3822.000000	94.696010 
3821.000000	94.696876 
3820.000000	94.696255 
3819.000000	94.696251 
3818.000000	94.698966 
3817.000000	94.703301 
3816.000000	94.706344 
3815.000000	94.707336 
3814.000000	94.708030 
3813.000000	94.709810 
3812.000000	94.711277 
3811.000000	94.710613 
3810.000000	94.708762 
3809.000000	94.707863 
3808.000000	94.708188 
3807.000000	94.708088 
3806.000000	94.706340 
3805.000000	94.703890 
3804.000000	94.702564 
3803.000000	94.702521 
3802.000000	94.702145 
3801.000000	94.700102 
3800.000000	94.697193 
3799.000000	94.695678 
3798.000000	94.696280 
3797.000000	94.697406 
3796.000000	94.697639 
3795.000000	94.697151 
3794.000000	94.696448 
3793.000000	94.695547 
3792.000000	94.694157 
3791.000000	94.692425 
3790.000000	94.691032 
3789.000000	94.690449 
3788.000000	94.690544 
3787.000000	94.690908 
3786.000000	94.691177 
3785.000000	94.691040 
3784.000000	94.690344 
3783.000000	94.689438 
3782.000000	94.689066 
3781.000000	94.689642 
3780.000000	94.690649 
3779.000000	94.691018 
3778.000000	94.690200 
3777.000000	94.688576 
3776.000000	94.686619 
3775.000000	94.684108 
3774.000000	94.680957 
3773.000000	94.678082 
3772.000000	94.676768 
3771.000000	94.677358 
3770.000000	94.678784 
3769.000000	94.679722 
3768.000000	94.680110 
3767.000000	94.680525 
3766.000000	94.680352 
3765.000000	94.678160 
3764.000000	94.673695 
3763.000000	94.668175 
3762.000000	94.662769 
3761.000000	94.657865 
3760.000000	94.654093 
3759.000000	94.652616 
3758.000000	94.653375 
3757.000000	94.654218 
3756.000000	94.652857 
3755.000000	94.649072 
3754.000000	94.644829 
3753.000000	94.643007 
3752.000000	94.646489 
3751.000000	94.654939 
3750.000000	94.662195 
3749.000000	94.661704 
3748.000000	94.653476 
3747.000000	94.643554 
3746.000000	94.637707 
3745.000000	94.634087 
3744.000000	94.624007 
3743.000000	94.605798 
3742.000000	94.590490 
3741.000000	94.584985 
3740.000000	94.582831 
3739.000000	94.579318 
3738.000000	94.576318 
3737.000000	94.572646 
3736.000000	94.567245 
3735.000000	94.564094 
3734.000000	94.566988 
3733.000000	94.573194 
3732.000000	94.575219 
3731.000000	94.569487 
3730.000000	94.559643 
3729.000000	94.549537 
3728.000000	94.538382 
3727.000000	94.525817 
3726.000000	94.515057 
3725.000000	94.508698 
3724.000000	94.505245 
3723.000000	94.500716 
3722.000000	94.493287 
3721.000000	94.486069 
3720.000000	94.482426 
3719.000000	94.480594 
3718.000000	94.475280 
3717.000000	94.463157 
3716.000000	94.446140 
3715.000000	94.428860 
3714.000000	94.413669 
3713.000000	94.399137 
3712.000000	94.382706 
3711.000000	94.363098 
3710.000000	94.341080 
3709.000000	94.318546 
3708.000000	94.296401 
3707.000000	94.274737 
3706.000000	94.254881 
3705.000000	94.237946 
3704.000000	94.221830 
3703.000000	94.202886 
3702.000000	94.180188 
3701.000000	94.156455 
3700.000000	94.135183 
3699.000000	94.117987 
3698.000000	94.103585 
3697.000000	94.088986 
3696.000000	94.073107 
3695.000000	94.058383 
3694.000000	94.048125 
3693.000000	94.043431 
3692.000000	94.042929 
3691.000000	94.043260 
3690.000000	94.038204 
3689.000000	94.022124 
3688.000000	93.997472 
3687.000000	93.974258 
3686.000000	93.959226 
3685.000000	93.948442 
3684.000000	93.933884 
3683.000000	93.913908 
3682.000000	93.892624 
3681.000000	93.871834 
3680.000000	93.848510 
3679.000000	93.820248 
3678.000000	93.790363 
3677.000000	93.763625 
3676.000000	93.736817 
3675.000000	93.702248 
3674.000000	93.662384 
3673.000000	93.629614 
3672.000000	93.605909 
3671.000000	93.579139 
3670.000000	93.543270 
3669.000000	93.505047 
3668.000000	93.474657 
3667.000000	93.454486 
3666.000000	93.434866 
3665.000000	93.407569 
3664.000000	93.376030 
3663.000000	93.347007 
3662.000000	93.322470 
3661.000000	93.299646 
3660.000000	93.275392 
3659.000000	93.250238 
3658.000000	93.227370 
3657.000000	93.206471 
3656.000000	93.180815 
3655.000000	93.144793 
3654.000000	93.101747 
3653.000000	93.059939 
3652.000000	93.024576 
3651.000000	92.996826 
3650.000000	92.972742 
3649.000000	92.946338 
3648.000000	92.919565 
3647.000000	92.899012 
3646.000000	92.884411 
3645.000000	92.870861 
3644.000000	92.856472 
3643.000000	92.842097 
3642.000000	92.827871 
3641.000000	92.813104 
3640.000000	92.797947 
3639.000000	92.782795 
3638.000000	92.766851 
3637.000000	92.748945 
3636.000000	92.728890 
3635.000000	92.705361 
3634.000000	92.674807 
3633.000000	92.636455 
3632.000000	92.597189 
3631.000000	92.567328 
3630.000000	92.549098 
3629.000000	92.529598 
3628.000000	92.495673 
3627.000000	92.457605 
3626.000000	92.437824 
3625.000000	92.441436 
3624.000000	92.457920 
3623.000000	92.479326 
3622.000000	92.503400 
3621.000000	92.530401 
3620.000000	92.559535 
3619.000000	92.584813 
3618.000000	92.600626 
3617.000000	92.610194 
3616.000000	92.622244 
3615.000000	92.641313 
3614.000000	92.665219 
3613.000000	92.690144 
3612.000000	92.716153 
3611.000000	92.746811 
3610.000000	92.783314 
3609.000000	92.820980 
3608.000000	92.852939 
3607.000000	92.877170 
3606.000000	92.898228 
3605.000000	92.922115 
3604.000000	92.951609 
3603.000000	92.985777 
3602.000000	93.021048 
3601.000000	93.052217 
3600.000000	93.074962 
3599.000000	93.088298 
3598.000000	93.094420 
3597.000000	93.096377 
3596.000000	93.096805 
3595.000000	93.097051 
3594.000000	93.096216 
3593.000000	93.093348 
3592.000000	93.090721 
3591.000000	93.093191 
3590.000000	93.104366 
3589.000000	93.122710 
3588.000000	93.139918 
3587.000000	93.146371 
3586.000000	93.140385 
3585.000000	93.129825 
3584.000000	93.124417 
3583.000000	93.128924 
3582.000000	93.142461 
3581.000000	93.159593 
3580.000000	93.173069 
3579.000000	93.178955 
3578.000000	93.178999 
3577.000000	93.177445 
3576.000000	93.175952 
3575.000000	93.172411 
3574.000000	93.164219 
3573.000000	93.151560 
3572.000000	93.137133 
3571.000000	93.123787 
3570.000000	93.113222 
3569.000000	93.105517 
3568.000000	93.097946 
3567.000000	93.085965 
3566.000000	93.069089 
3565.000000	93.054622 
3564.000000	93.051623 
3563.000000	93.061738 
3562.000000	93.077775 
3561.000000	93.090147 
3560.000000	93.094479 
3559.000000	93.093450 
3558.000000	93.091878 
3557.000000	93.091403 
3556.000000	93.090471 
3555.000000	93.087810 
3554.000000	93.083996 
3553.000000	93.079531 
3552.000000	93.073332 
3551.000000	93.064569 
3550.000000	93.054975 
3549.000000	93.047606 
3548.000000	93.043494 
3547.000000	93.040707 
3546.000000	93.037035 
3545.000000	93.032865 
3544.000000	93.030438 
3543.000000	93.030665 
3542.000000	93.031772 
3541.000000	93.031149 
3540.000000	93.027946 
3539.000000	93.023742 
3538.000000	93.020897 
3537.000000	93.020399 
3536.000000	93.021156 
3535.000000	93.021115 
3534.000000	93.018927 
3533.000000	93.014540 
3532.000000	93.008750 
3531.000000	93.002586 
3530.000000	92.996998 
3529.000000	92.992615 
3528.000000	92.989283 
3527.000000	92.986018 
3526.000000	92.981956 
3525.000000	92.977289 
3524.000000	92.972834 
3523.000000	92.968802 
3522.000000	92.964715 
3521.000000	92.960637 
3520.000000	92.957574 
3519.000000	92.956214 
3518.000000	92.955925 
3517.000000	92.955362 
3516.000000	92.953962 
3515.000000	92.952035 
3514.000000	92.949685 
3513.000000	92.946404 
3512.000000	92.941793 
3511.000000	92.936176 
3510.000000	92.930406 
3509.000000	92.925310 
3508.000000	92.921229 
3507.000000	92.917801 
3506.000000	92.914127 
3505.000000	92.909457 
3504.000000	92.903925 
3503.000000	92.898456 
3502.000000	92.893774 
3501.000000	92.889757 
3500.000000	92.885906 
3499.000000	92.882148 
3498.000000	92.878916 
3497.000000	92.876512 
3496.000000	92.874578 
3495.000000	92.872169 
3494.000000	92.868377 
3493.000000	92.863050 
3492.000000	92.857070 
3491.000000	92.851880 
3490.000000	92.848419 
3489.000000	92.846465 
3488.000000	92.844772 
3487.000000	92.841998 
3486.000000	92.837652 
3485.000000	92.832170 
3484.000000	92.826320 
3483.000000	92.820549 
3482.000000	92.814884 
3481.000000	92.809239 
3480.000000	92.803715 
3479.000000	92.798553 
3478.000000	92.793821 
3477.000000	92.789209 
3476.000000	92.784204 
3475.000000	92.778581 
3474.000000	92.772736 
3473.000000	92.767395 
3472.000000	92.762898 
3471.000000	92.758820 
3470.000000	92.754358 
3469.000000	92.749151 
3468.000000	92.743632 
3467.000000	92.738570 
3466.000000	92.734249 
3465.000000	92.730120 
3464.000000	92.725228 
3463.000000	92.718992 
3462.000000	92.711709 
3461.000000	92.704443 
3460.000000	92.698228 
3459.000000	92.693279 
3458.000000	92.688976 
3457.000000	92.684565 
3456.000000	92.679859 
3455.000000	92.675184 
3454.000000	92.670795 
3453.000000	92.666444 
3452.000000	92.661411 
3451.000000	92.654919 
3450.000000	92.646754 
3449.000000	92.637715 
3448.000000	92.629480 
3447.000000	92.623560 
3446.000000	92.620039 
3445.000000	92.617362 
3444.000000	92.613365 
3443.000000	92.606766 
3442.000000	92.597965 
3441.000000	92.588797 
3440.000000	92.581123 
3439.000000	92.575352 
3438.000000	92.570228 
3437.000000	92.564191 
3436.000000	92.557157 
3435.000000	92.550635 
3434.000000	92.546111 
3433.000000	92.543648 
3432.000000	92.542029 
3431.000000	92.539984 
3430.000000	92.537054 
3429.000000	92.533426 
3428.000000	92.529413 
3427.000000	92.525258 
3426.000000	92.521190 
3425.000000	92.517425 
3424.000000	92.513999 
3423.000000	92.510601 
3422.000000	92.506734 
3421.000000	92.502263 
3420.000000	92.497820 
3419.000000	92.494419 
3418.000000	92.492474 
3417.000000	92.491232 
3416.000000	92.489254 
3415.000000	92.485621 
3414.000000	92.480800 
3413.000000	92.476428 
3412.000000	92.474025 
3411.000000	92.473624 
3410.000000	92.473605 
3409.000000	92.472169 
3408.000000	92.469145 
3407.000000	92.466217 
3406.000000	92.465235 
3405.000000	92.466433 
3404.000000	92.468172 
3403.000000	92.468214 
3402.000000	92.465417 
3401.000000	92.460676 
3400.000000	92.456622 
3399.000000	92.455776 
3398.000000	92.458478 
3397.000000	92.462399 
3396.000000	92.464334 
3395.000000	92.463032 
3394.000000	92.459999 
3393.000000	92.457786 
3392.000000	92.457612 
3391.000000	92.458734 
3390.000000	92.459678 
3389.000000	92.459612 
3388.000000	92.458670 
3387.000000	92.457621 
3386.000000	92.457492 
3385.000000	92.459035 
3384.000000	92.462070 
3383.000000	92.465450 
3382.000000	92.468100 
3381.000000	92.470047 
3380.000000	92.472065 
3379.000000	92.474401 
3378.000000	92.476349 
3377.000000	92.477276 
3376.000000	92.477695 
3375.000000	92.478931 
3374.000000	92.481913 
3373.000000	92.486579 
3372.000000	92.492162 
3371.000000	92.497669 
3370.000000	92.502072 
3369.000000	92.504508 
3368.000000	92.504790 
3367.000000	92.503623 
3366.000000	92.502260 
3365.000000	92.501814 
3364.000000	92.502826 
3363.000000	92.505436 
3362.000000	92.509618 
3361.000000	92.515039 
3360.000000	92.520854 
3359.000000	92.525939 
3358.000000	92.529648 
3357.000000	92.532248 
3356.000000	92.534570 
3355.000000	92.537210 
3354.000000	92.540035 
3353.000000	92.542574 
3352.000000	92.544725 
3351.000000	92.546941 
3350.000000	92.549734 
3349.000000	92.553159 
3348.000000	92.556814 
3347.000000	92.560284 
3346.000000	92.563530 
3345.000000	92.566795 
3344.000000	92.570252 
3343.000000	92.573819 
3342.000000	92.577288 
3341.000000	92.580545 
3340.000000	92.583641 
3339.000000	92.586713 
3338.000000	92.589876 
3337.000000	92.593178 
3336.000000	92.596591 
3335.000000	92.600031 
3334.000000	92.603401 
3333.000000	92.606660 
3332.000000	92.609864 
3331.000000	92.613133 
3330.000000	92.616540 
3329.000000	92.620059 
3328.000000	92.623569 
3327.000000	92.626950 
3326.000000	92.630178 
3325.000000	92.633317 
3324.000000	92.636483 
3323.000000	92.639743 
3322.000000	92.643101 
3321.000000	92.646527 
3320.000000	92.649953 
3319.000000	92.653310 
3318.000000	92.656561 
3317.000000	92.659723 
3316.000000	92.662822 
3315.000000	92.665846 
3314.000000	92.668757 
3313.000000	92.671529 
3312.000000	92.674194 
3311.000000	92.676875 
3310.000000	92.679774 
3309.000000	92.683039 
3308.000000	92.686605 
3307.000000	92.690193 
3306.000000	92.693563 
3305.000000	92.696748 
3304.000000	92.699980 
3303.000000	92.703397 
3302.000000	92.706861 
3301.000000	92.710131 
3300.000000	92.713160 
3299.000000	92.716148 
3298.000000	92.719303 
3297.000000	92.722637 
3296.000000	92.726037 
3295.000000	92.729472 
3294.000000	92.732983 
3293.000000	92.736498 
3292.000000	92.739768 
3291.000000	92.742616 
3290.000000	92.745226 
3289.000000	92.748076 
3288.000000	92.751496 
3287.000000	92.755343 
3286.000000	92.759060 
3285.000000	92.762165 
3284.000000	92.764553 
3283.000000	92.766548 
3282.000000	92.768688 
3281.000000	92.771383 
3280.000000	92.774688 
3279.000000	92.778316 
3278.000000	92.781987 
3277.000000	92.785692 
3276.000000	92.789536 
3275.000000	92.793469 
3274.000000	92.797274 
3273.000000	92.800822 
3272.000000	92.804179 
3271.000000	92.807437 
3270.000000	92.810583 
3269.000000	92.813617 
3268.000000	92.816700 
3267.000000	92.820039 
3266.000000	92.823640 
3265.000000	92.827266 
3264.000000	92.830651 
3263.000000	92.833728 
3262.000000	92.836656 
3261.000000	92.839657 
3260.000000	92.842851 
3259.000000	92.846204 
3258.000000	92.849607 
3257.000000	92.853004 
3256.000000	92.856433 
3255.000000	92.859947 
3254.000000	92.863518 
3253.000000	92.867055 
3252.000000	92.870491 
3251.000000	92.873820 
3250.000000	92.877074 
3249.000000	92.880308 
3248.000000	92.883610 
3247.000000	92.887058 
3246.000000	92.890608 
3245.000000	92.894097 
3244.000000	92.897415 
3243.000000	92.900647 
3242.000000	92.903994 
3241.000000	92.907547 
3240.000000	92.911170 
3239.000000	92.914649 
3238.000000	92.917917 
3237.000000	92.921137 
3236.000000	92.924575 
3235.000000	92.928352 
3234.000000	92.932375 
3233.000000	92.936442 
3232.000000	92.940425 
3231.000000	92.944310 
3230.000000	92.948143 
3229.000000	92.952003 
3228.000000	92.955969 
3227.000000	92.960058 
3226.000000	92.964217 
3225.000000	92.968359 
3224.000000	92.972435 
3223.000000	92.976466 
3222.000000	92.980516 
3221.000000	92.984649 
3220.000000	92.988881 
3219.000000	92.993176 
3218.000000	92.997478 
3217.000000	93.001756 
3216.000000	93.006026 
3215.000000	93.010333 
3214.000000	93.014717 
3213.000000	93.019182 
3212.000000	93.023709 
3211.000000	93.028274 
3210.000000	93.032867 
3209.000000	93.037495 
3208.000000	93.042164 
3207.000000	93.046869 
3206.000000	93.051598 
3205.000000	93.056342 
3204.000000	93.061097 
3203.000000	93.065862 
3202.000000	93.070645 
3201.000000	93.075455 
3200.000000	93.080301 
3199.000000	93.085183 
3198.000000	93.090098 
3197.000000	93.095038 
3196.000000	93.099992 
3195.000000	93.104947 
3194.000000	93.109897 
3193.000000	93.114838 
3192.000000	93.119773 
3191.000000	93.124702 
3190.000000	93.129622 
3189.000000	93.134530 
