PE IR                   SPECTRUM    ASCII       PEDS        1.60        
  -1
~SP.SP
22/12/06
12:33:15.00
23/01/09
14:40:50.00
Administrator

650.000000
4









FRONTIER FT-IR,CPU32 MAIN 00.09.9951 07-SEPTEMBER-2011 11:49:41
MIR TGS
MIR
OPTKBR
90694
0.200000

4.000000
STRONG
RATIO
SPECTRUM
MAGNITUDE
MIRACLE ATR
DOUBLE

COMBINED


0


#HDR
-1
-1
#GR
CM-1
%T
0.00002384185791015625
0.0
4000.000000
-1.000000
3351
8
83.005792
64.510319
#DATA
4000.000000	82.980391 
3999.000000	82.979670 
3998.000000	82.978958 
3997.000000	82.978271 
3996.000000	82.977617 
3995.000000	82.976994 
3994.000000	82.976384 
3993.000000	82.975763 
3992.000000	82.975115 
3991.000000	82.974443 
3990.000000	82.973766 
3989.000000	82.973100 
3988.000000	82.972453 
3987.000000	82.971818 
3986.000000	82.971180 
3985.000000	82.970528 
3984.000000	82.969855 
3983.000000	82.969166 
3982.000000	82.968467 
3981.000000	82.967765 
3980.000000	82.967066 
3979.000000	82.966375 
3978.000000	82.965693 
3977.000000	82.965016 
3976.000000	82.964333 
3975.000000	82.963639 
3974.000000	82.962932 
3973.000000	82.962220 
3972.000000	82.961515 
3971.000000	82.960828 
3970.000000	82.960165 
3969.000000	82.959526 
3968.000000	82.958904 
3967.000000	82.958288 
3966.000000	82.957669 
3965.000000	82.957039 
3964.000000	82.956393 
3963.000000	82.955733 
3962.000000	82.955069 
3961.000000	82.954411 
3960.000000	82.953766 
3959.000000	82.953140 
3958.000000	82.952537 
3957.000000	82.951962 
3956.000000	82.951409 
3955.000000	82.950866 
3954.000000	82.950317 
3953.000000	82.949755 
3952.000000	82.949183 
3951.000000	82.948614 
3950.000000	82.948060 
3949.000000	82.947524 
3948.000000	82.947002 
3947.000000	82.946484 
3946.000000	82.945957 
3945.000000	82.945416 
3944.000000	82.944862 
3943.000000	82.944297 
3942.000000	82.943726 
3941.000000	82.943156 
3940.000000	82.942595 
3939.000000	82.942049 
3938.000000	82.941518 
3937.000000	82.940997 
3936.000000	82.940475 
3935.000000	82.939946 
3934.000000	82.939416 
3933.000000	82.938899 
3932.000000	82.938411 
3931.000000	82.937948 
3930.000000	82.937486 
3929.000000	82.936990 
3928.000000	82.936437 
3927.000000	82.935827 
3926.000000	82.935178 
3925.000000	82.934505 
3924.000000	82.933808 
3923.000000	82.933077 
3922.000000	82.932312 
3921.000000	82.931525 
3920.000000	82.930733 
3919.000000	82.929943 
3918.000000	82.929152 
3917.000000	82.928359 
3916.000000	82.927561 
3915.000000	82.926755 
3914.000000	82.925927 
3913.000000	82.925065 
3912.000000	82.924166 
3911.000000	82.923239 
3910.000000	82.922286 
3909.000000	82.921300 
3908.000000	82.920267 
3907.000000	82.919186 
3906.000000	82.918061 
3905.000000	82.916901 
3904.000000	82.915705 
3903.000000	82.914475 
3902.000000	82.913225 
3901.000000	82.911987 
3900.000000	82.910800 
3899.000000	82.909694 
3898.000000	82.908678 
3897.000000	82.907737 
3896.000000	82.906844 
3895.000000	82.905982 
3894.000000	82.905153 
3893.000000	82.904362 
3892.000000	82.903598 
3891.000000	82.902840 
3890.000000	82.902066 
3889.000000	82.901256 
3888.000000	82.900417 
3887.000000	82.899583 
3886.000000	82.898795 
3885.000000	82.898071 
3884.000000	82.897405 
3883.000000	82.896784 
3882.000000	82.896221 
3881.000000	82.895747 
3880.000000	82.895380 
3879.000000	82.895106 
3878.000000	82.894894 
3877.000000	82.894716 
3876.000000	82.894553 
3875.000000	82.894436 
3874.000000	82.894405 
3873.000000	82.894396 
3872.000000	82.894243 
3871.000000	82.893886 
3870.000000	82.893583 
3869.000000	82.893625 
3868.000000	82.893805 
3867.000000	82.893617 
3866.000000	82.893191 
3865.000000	82.893133 
3864.000000	82.893577 
3863.000000	82.894078 
3862.000000	82.894316 
3861.000000	82.894556 
3860.000000	82.895288 
3859.000000	82.896781 
3858.000000	82.899220 
3857.000000	82.902543 
3856.000000	82.905842 
3855.000000	82.907335 
3854.000000	82.906304 
3853.000000	82.904884 
3852.000000	82.904578 
3851.000000	82.903592 
3850.000000	82.901637 
3849.000000	82.900441 
3848.000000	82.900683 
3847.000000	82.901750 
3846.000000	82.902787 
3845.000000	82.903394 
3844.000000	82.903711 
3843.000000	82.904107 
3842.000000	82.904760 
3841.000000	82.905503 
3840.000000	82.906118 
3839.000000	82.906547 
3838.000000	82.906895 
3837.000000	82.907169 
3836.000000	82.907196 
3835.000000	82.906857 
3834.000000	82.906315 
3833.000000	82.905826 
3832.000000	82.905486 
3831.000000	82.905204 
3830.000000	82.904837 
3829.000000	82.904345 
3828.000000	82.903815 
3827.000000	82.903331 
3826.000000	82.902870 
3825.000000	82.902349 
3824.000000	82.901715 
3823.000000	82.900979 
3822.000000	82.900176 
3821.000000	82.899325 
3820.000000	82.898417 
3819.000000	82.897417 
3818.000000	82.896303 
3817.000000	82.895088 
3816.000000	82.893802 
3815.000000	82.892471 
3814.000000	82.891107 
3813.000000	82.889741 
3812.000000	82.888423 
3811.000000	82.887186 
3810.000000	82.886038 
3809.000000	82.884940 
3808.000000	82.883813 
3807.000000	82.882670 
3806.000000	82.881569 
3805.000000	82.880278 
3804.000000	82.878571 
3803.000000	82.876575 
3802.000000	82.874630 
3801.000000	82.872908 
3800.000000	82.871213 
3799.000000	82.869134 
3798.000000	82.866779 
3797.000000	82.864793 
3796.000000	82.863500 
3795.000000	82.862602 
3794.000000	82.861401 
3793.000000	82.859470 
3792.000000	82.856957 
3791.000000	82.854347 
3790.000000	82.852023 
3789.000000	82.850263 
3788.000000	82.849196 
3787.000000	82.848670 
3786.000000	82.848334 
3785.000000	82.848271 
3784.000000	82.848770 
3783.000000	82.849516 
3782.000000	82.849860 
3781.000000	82.849963 
3780.000000	82.850703 
3779.000000	82.852181 
3778.000000	82.852851 
3777.000000	82.850887 
3776.000000	82.847059 
3775.000000	82.844284 
3774.000000	82.844091 
3773.000000	82.845096 
3772.000000	82.845562 
3771.000000	82.846226 
3770.000000	82.848999 
3769.000000	82.852841 
3768.000000	82.853736 
3767.000000	82.850332 
3766.000000	82.846606 
3765.000000	82.846632 
3764.000000	82.849272 
3763.000000	82.850069 
3762.000000	82.847409 
3761.000000	82.844053 
3760.000000	82.842573 
3759.000000	82.842797 
3758.000000	82.844039 
3757.000000	82.846645 
3756.000000	82.851239 
3755.000000	82.857333 
3754.000000	82.863854 
3753.000000	82.868882 
3752.000000	82.869607 
3751.000000	82.866609 
3750.000000	82.865736 
3749.000000	82.869073 
3748.000000	82.869956 
3747.000000	82.862584 
3746.000000	82.849195 
3745.000000	82.837284 
3744.000000	82.836054 
3743.000000	82.841233 
3742.000000	82.832827 
3741.000000	82.811368 
3740.000000	82.797492 
3739.000000	82.795414 
3738.000000	82.791822 
3737.000000	82.778691 
3736.000000	82.765803 
3735.000000	82.766532 
3734.000000	82.778753 
3733.000000	82.790098 
3732.000000	82.793343 
3731.000000	82.786265 
3730.000000	82.765936 
3729.000000	82.733957 
3728.000000	82.701154 
3727.000000	82.679522 
3726.000000	82.671508 
3725.000000	82.669127 
3724.000000	82.663906 
3723.000000	82.656593 
3722.000000	82.652275 
3721.000000	82.651555 
3720.000000	82.650154 
3719.000000	82.644980 
3718.000000	82.637280 
3717.000000	82.629414 
3716.000000	82.622066 
3715.000000	82.614207 
3714.000000	82.604211 
3713.000000	82.588335 
3712.000000	82.563430 
3711.000000	82.532454 
3710.000000	82.500781 
3709.000000	82.471032 
3708.000000	82.445132 
3707.000000	82.424764 
3706.000000	82.408807 
3705.000000	82.392013 
3704.000000	82.367810 
3703.000000	82.333187 
3702.000000	82.292117 
3701.000000	82.252339 
3700.000000	82.216080 
3699.000000	82.179619 
3698.000000	82.142722 
3697.000000	82.110423 
3696.000000	82.085383 
3695.000000	82.064845 
3694.000000	82.047236 
3693.000000	82.036504 
3692.000000	82.034744 
3691.000000	82.034351 
3690.000000	82.024121 
3689.000000	82.003040 
3688.000000	81.979463 
3687.000000	81.954477 
3686.000000	81.923101 
3685.000000	81.891072 
3684.000000	81.871156 
3683.000000	81.866170 
3682.000000	81.867442 
3681.000000	81.866090 
3680.000000	81.859759 
3679.000000	81.846603 
3678.000000	81.820691 
3677.000000	81.782695 
3676.000000	81.751799 
3675.000000	81.751168 
3674.000000	81.769257 
3673.000000	81.769570 
3672.000000	81.745489 
3671.000000	81.717368 
3670.000000	81.698555 
3669.000000	81.689606 
3668.000000	81.679879 
3667.000000	81.661076 
3666.000000	81.638753 
3665.000000	81.619957 
3664.000000	81.605292 
3663.000000	81.594646 
3662.000000	81.590903 
3661.000000	81.595432 
3660.000000	81.604589 
3659.000000	81.613073 
3658.000000	81.621140 
3657.000000	81.636205 
3656.000000	81.663531 
3655.000000	81.694674 
3654.000000	81.712794 
3653.000000	81.715150 
3652.000000	81.713490 
3651.000000	81.713416 
3650.000000	81.711049 
3649.000000	81.708988 
3648.000000	81.716500 
3647.000000	81.735333 
3646.000000	81.756606 
3645.000000	81.771296 
3644.000000	81.778817 
3643.000000	81.784526 
3642.000000	81.792436 
3641.000000	81.801666 
3640.000000	81.810343 
3639.000000	81.819481 
3638.000000	81.831159 
3637.000000	81.843295 
3636.000000	81.852213 
3635.000000	81.860340 
3634.000000	81.874598 
3633.000000	81.895918 
3632.000000	81.915435 
3631.000000	81.924547 
3630.000000	81.923318 
3629.000000	81.922862 
3628.000000	81.932605 
3627.000000	81.942003 
3626.000000	81.940946 
3625.000000	81.939765 
3624.000000	81.948772 
3623.000000	81.964048 
3622.000000	81.977381 
3621.000000	81.986313 
3620.000000	81.993926 
3619.000000	82.003416 
3618.000000	82.014249 
3617.000000	82.023165 
3616.000000	82.028809 
3615.000000	82.033387 
3614.000000	82.039999 
3613.000000	82.050036 
3612.000000	82.062164 
3611.000000	82.073423 
3610.000000	82.082382 
3609.000000	82.090834 
3608.000000	82.101374 
3607.000000	82.113916 
3606.000000	82.125759 
3605.000000	82.134965 
3604.000000	82.141886 
3603.000000	82.147334 
3602.000000	82.152196 
3601.000000	82.158470 
3600.000000	82.167632 
3599.000000	82.177913 
3598.000000	82.185337 
3597.000000	82.187671 
3596.000000	82.186402 
3595.000000	82.185984 
3594.000000	82.190346 
3593.000000	82.199659 
3592.000000	82.210123 
3591.000000	82.217729 
3590.000000	82.220543 
3589.000000	82.219355 
3588.000000	82.218459 
3587.000000	82.223234 
3586.000000	82.232898 
3585.000000	82.240474 
3584.000000	82.241909 
3583.000000	82.239409 
3582.000000	82.237346 
3581.000000	82.238129 
3580.000000	82.241144 
3579.000000	82.243953 
3578.000000	82.244888 
3577.000000	82.244645 
3576.000000	82.244514 
3575.000000	82.244466 
3574.000000	82.243453 
3573.000000	82.241232 
3572.000000	82.238428 
3571.000000	82.234843 
3570.000000	82.229087 
3569.000000	82.220643 
3568.000000	82.212556 
3567.000000	82.210088 
3566.000000	82.214902 
3565.000000	82.222789 
3564.000000	82.228855 
3563.000000	82.231767 
3562.000000	82.232165 
3561.000000	82.230947 
3560.000000	82.229494 
3559.000000	82.229290 
3558.000000	82.230577 
3557.000000	82.231949 
3556.000000	82.231562 
3555.000000	82.228646 
3554.000000	82.224152 
3553.000000	82.220032 
3552.000000	82.217667 
3551.000000	82.216725 
3550.000000	82.215822 
3549.000000	82.214103 
3548.000000	82.211778 
3547.000000	82.209596 
3546.000000	82.208459 
3545.000000	82.209052 
3544.000000	82.211175 
3543.000000	82.213554 
3542.000000	82.214614 
3541.000000	82.213517 
3540.000000	82.210541 
3539.000000	82.206757 
3538.000000	82.203446 
3537.000000	82.201379 
3536.000000	82.200512 
3535.000000	82.200153 
3534.000000	82.199517 
3533.000000	82.198238 
3532.000000	82.196329 
3531.000000	82.193811 
3530.000000	82.190681 
3529.000000	82.187274 
3528.000000	82.184239 
3527.000000	82.181959 
3526.000000	82.180174 
3525.000000	82.178411 
3524.000000	82.176522 
3523.000000	82.174607 
3522.000000	82.172664 
3521.000000	82.170676 
3520.000000	82.168848 
3519.000000	82.167392 
3518.000000	82.166125 
3517.000000	82.164594 
3516.000000	82.162608 
3515.000000	82.160386 
3514.000000	82.158078 
3513.000000	82.155419 
3512.000000	82.152154 
3511.000000	82.148584 
3510.000000	82.145406 
3509.000000	82.143024 
3508.000000	82.141136 
3507.000000	82.138989 
3506.000000	82.136059 
3505.000000	82.132416 
3504.000000	82.128575 
3503.000000	82.125120 
3502.000000	82.122276 
3501.000000	82.119858 
3500.000000	82.117510 
3499.000000	82.115016 
3498.000000	82.112367 
3497.000000	82.109646 
3496.000000	82.106926 
3495.000000	82.104209 
3494.000000	82.101462 
3493.000000	82.098691 
3492.000000	82.095948 
3491.000000	82.093265 
3490.000000	82.090608 
3489.000000	82.087924 
3488.000000	82.085192 
3487.000000	82.082418 
3486.000000	82.079593 
3485.000000	82.076693 
3484.000000	82.073723 
3483.000000	82.070719 
3482.000000	82.067711 
3481.000000	82.064705 
3480.000000	82.061691 
3479.000000	82.058664 
3478.000000	82.055615 
3477.000000	82.052529 
3476.000000	82.049400 
3475.000000	82.046237 
3474.000000	82.043059 
3473.000000	82.039882 
3472.000000	82.036708 
3471.000000	82.033533 
3470.000000	82.030346 
3469.000000	82.027142 
3468.000000	82.023922 
3467.000000	82.020683 
3466.000000	82.017425 
3465.000000	82.014144 
3464.000000	82.010842 
3463.000000	82.007511 
3462.000000	82.004143 
3461.000000	82.000748 
3460.000000	81.997351 
3459.000000	81.993976 
3458.000000	81.990623 
3457.000000	81.987265 
3456.000000	81.983886 
3455.000000	81.980497 
3454.000000	81.977095 
3453.000000	81.973635 
3452.000000	81.970074 
3451.000000	81.966398 
3450.000000	81.962590 
3449.000000	81.958650 
3448.000000	81.954721 
3447.000000	81.951079 
3446.000000	81.947840 
3445.000000	81.944691 
3444.000000	81.941129 
3443.000000	81.936929 
3442.000000	81.932305 
3441.000000	81.927782 
3440.000000	81.923852 
3439.000000	81.920608 
3438.000000	81.917528 
3437.000000	81.913765 
3436.000000	81.909055 
3435.000000	81.904157 
3434.000000	81.900160 
3433.000000	81.897421 
3432.000000	81.895395 
3431.000000	81.893403 
3430.000000	81.891161 
3429.000000	81.888627 
3428.000000	81.885708 
3427.000000	81.882308 
3426.000000	81.878557 
3425.000000	81.874798 
3424.000000	81.871332 
3423.000000	81.868199 
3422.000000	81.865238 
3421.000000	81.862360 
3420.000000	81.859730 
3419.000000	81.857686 
3418.000000	81.856399 
3417.000000	81.855524 
3416.000000	81.854195 
3415.000000	81.851602 
3414.000000	81.847753 
3413.000000	81.843734 
3412.000000	81.840905 
3411.000000	81.839644 
3410.000000	81.838981 
3409.000000	81.837659 
3408.000000	81.835539 
3407.000000	81.833704 
3406.000000	81.833182 
3405.000000	81.833831 
3404.000000	81.834453 
3403.000000	81.833761 
3402.000000	81.831196 
3401.000000	81.827201 
3400.000000	81.823250 
3399.000000	81.821249 
3398.000000	81.822246 
3397.000000	81.825469 
3396.000000	81.828688 
3395.000000	81.830119 
3394.000000	81.829718 
3393.000000	81.828535 
3392.000000	81.827427 
3391.000000	81.826636 
3390.000000	81.826180 
3389.000000	81.825907 
3388.000000	81.825269 
3387.000000	81.823790 
3386.000000	81.821963 
3385.000000	81.821074 
3384.000000	81.821787 
3383.000000	81.823392 
3382.000000	81.824815 
3381.000000	81.825987 
3380.000000	81.827618 
3379.000000	81.829872 
3378.000000	81.831947 
3377.000000	81.833116 
3376.000000	81.833669 
3375.000000	81.834560 
3374.000000	81.836409 
3373.000000	81.839184 
3372.000000	81.842603 
3371.000000	81.846355 
3370.000000	81.849832 
3369.000000	81.852112 
3368.000000	81.852654 
3367.000000	81.851862 
3366.000000	81.850858 
3365.000000	81.850634 
3364.000000	81.851521 
3363.000000	81.853454 
3362.000000	81.856307 
3361.000000	81.859819 
3360.000000	81.863429 
3359.000000	81.866518 
3358.000000	81.868875 
3357.000000	81.870815 
3356.000000	81.872797 
3355.000000	81.874948 
3354.000000	81.876945 
3353.000000	81.878408 
3352.000000	81.879396 
3351.000000	81.880492 
3350.000000	81.882280 
3349.000000	81.884793 
3348.000000	81.887523 
3347.000000	81.889887 
3346.000000	81.891756 
3345.000000	81.893408 
3344.000000	81.895163 
3343.000000	81.897084 
3342.000000	81.899036 
3341.000000	81.900865 
3340.000000	81.902514 
3339.000000	81.904038 
3338.000000	81.905576 
3337.000000	81.907254 
3336.000000	81.909100 
3335.000000	81.911002 
3334.000000	81.912779 
3333.000000	81.914340 
3332.000000	81.915765 
3331.000000	81.917236 
3330.000000	81.918854 
3329.000000	81.920556 
3328.000000	81.922164 
3327.000000	81.923535 
3326.000000	81.924653 
3325.000000	81.925647 
3324.000000	81.926724 
3323.000000	81.928018 
3322.000000	81.929532 
3321.000000	81.931158 
3320.000000	81.932758 
3319.000000	81.934222 
3318.000000	81.935489 
3317.000000	81.936544 
3316.000000	81.937438 
3315.000000	81.938267 
3314.000000	81.939107 
3313.000000	81.939936 
3312.000000	81.940679 
3311.000000	81.941348 
3310.000000	81.942141 
3309.000000	81.943288 
3308.000000	81.944794 
3307.000000	81.946377 
3306.000000	81.947714 
3305.000000	81.948766 
3304.000000	81.949763 
3303.000000	81.950917 
3302.000000	81.952183 
3301.000000	81.953323 
3300.000000	81.954186 
3299.000000	81.954857 
3298.000000	81.955566 
3297.000000	81.956493 
3296.000000	81.957665 
3295.000000	81.958965 
3294.000000	81.960149 
3293.000000	81.960965 
3292.000000	81.961344 
3291.000000	81.961484 
3290.000000	81.961762 
3289.000000	81.962415 
3288.000000	81.963395 
3287.000000	81.964415 
3286.000000	81.965173 
3285.000000	81.965588 
3284.000000	81.965787 
3283.000000	81.965968 
3282.000000	81.966249 
3281.000000	81.966636 
3280.000000	81.967055 
3279.000000	81.967405 
3278.000000	81.967649 
3277.000000	81.967892 
3276.000000	81.968329 
3275.000000	81.969072 
3274.000000	81.969976 
3273.000000	81.970719 
3272.000000	81.971093 
3271.000000	81.971149 
3270.000000	81.971041 
3269.000000	81.970838 
3268.000000	81.970586 
3267.000000	81.970487 
3266.000000	81.970801 
3265.000000	81.971481 
3264.000000	81.972086 
3263.000000	81.972262 
3262.000000	81.972272 
3261.000000	81.972775 
3260.000000	81.973958 
3259.000000	81.975046 
3258.000000	81.974920 
3257.000000	81.973285 
3256.000000	81.971192 
3255.000000	81.970225 
3254.000000	81.971076 
3253.000000	81.973033 
3252.000000	81.974803 
3251.000000	81.975622 
3250.000000	81.975426 
3249.000000	81.974415 
3248.000000	81.972984 
3247.000000	81.971846 
3246.000000	81.971550 
3245.000000	81.971680 
3244.000000	81.971157 
3243.000000	81.969631 
3242.000000	81.967998 
3241.000000	81.967068 
3240.000000	81.966213 
3239.000000	81.963987 
3238.000000	81.959923 
3237.000000	81.955298 
3236.000000	81.952142 
3235.000000	81.951760 
3234.000000	81.954076 
3233.000000	81.957838 
3232.000000	81.961311 
3231.000000	81.963314 
3230.000000	81.963885 
3229.000000	81.963991 
3228.000000	81.964667 
3227.000000	81.966373 
3226.000000	81.968819 
3225.000000	81.971053 
3224.000000	81.971920 
3223.000000	81.971021 
3222.000000	81.969331 
3221.000000	81.968541 
3220.000000	81.969459 
3219.000000	81.971274 
3218.000000	81.972514 
3217.000000	81.972548 
3216.000000	81.972029 
3215.000000	81.972082 
3214.000000	81.973321 
3213.000000	81.975677 
3212.000000	81.978729 
3211.000000	81.981927 
3210.000000	81.984698 
3209.000000	81.986643 
3208.000000	81.987804 
3207.000000	81.988618 
3206.000000	81.989521 
3205.000000	81.990616 
3204.000000	81.991750 
3203.000000	81.992828 
3202.000000	81.993964 
3201.000000	81.995366 
3200.000000	81.997154 
3199.000000	81.999262 
3198.000000	82.001454 
3197.000000	82.003452 
3196.000000	82.005153 
3195.000000	82.006691 
3194.000000	82.008265 
3193.000000	82.009943 
3192.000000	82.011668 
3191.000000	82.013374 
3190.000000	82.015036 
3189.000000	82.016654 
