PE IR                   SPECTRUM    ASCII       PEDS        1.60        
  -1
~SP.SP
22/12/06
15:21:49.00
23/01/09
14:45:12.00
Administrator

650.000000
4









FRONTIER FT-IR,CPU32 MAIN 00.09.9951 07-SEPTEMBER-2011 11:49:41
MIR TGS
MIR
OPTKBR
90694
0.200000

4.000000
STRONG
RATIO
SPECTRUM
MAGNITUDE
MIRACLE ATR
DOUBLE

COMBINED


0


#HDR
-1
-1
#GR
CM-1
%T
0.00002384185791015625
0.0
4000.000000
-1.000000
3351
8
94.753521
85.595810
#DATA
4000.000000	94.700743 
3999.000000	94.700373 
3998.000000	94.696905 
3997.000000	94.692026 
3996.000000	94.687820 
3995.000000	94.685177 
3994.000000	94.684080 
3993.000000	94.684185 
3992.000000	94.685179 
3991.000000	94.686981 
3990.000000	94.689623 
3989.000000	94.692945 
3988.000000	94.696428 
3987.000000	94.699358 
3986.000000	94.701298 
3985.000000	94.702291 
3984.000000	94.702517 
3983.000000	94.702015 
3982.000000	94.700752 
3981.000000	94.698856 
3980.000000	94.696867 
3979.000000	94.695512 
3978.000000	94.695054 
3977.000000	94.695016 
3976.000000	94.694640 
3975.000000	94.693661 
3974.000000	94.692584 
3973.000000	94.692186 
3972.000000	94.692748 
3971.000000	94.693882 
3970.000000	94.694905 
3969.000000	94.695381 
3968.000000	94.695281 
3967.000000	94.694779 
3966.000000	94.694046 
3965.000000	94.693212 
3964.000000	94.692414 
3963.000000	94.691740 
3962.000000	94.691129 
3961.000000	94.690481 
3960.000000	94.689894 
3959.000000	94.689715 
3958.000000	94.690218 
3957.000000	94.691280 
3956.000000	94.692406 
3955.000000	94.693075 
3954.000000	94.693118 
3953.000000	94.692715 
3952.000000	94.692157 
3951.000000	94.691613 
3950.000000	94.691092 
3949.000000	94.690548 
3948.000000	94.689972 
3947.000000	94.689410 
3946.000000	94.688939 
3945.000000	94.688623 
3944.000000	94.688471 
3943.000000	94.688401 
3942.000000	94.688220 
3941.000000	94.687777 
3940.000000	94.687073 
3939.000000	94.686219 
3938.000000	94.685343 
3937.000000	94.684516 
3936.000000	94.683784 
3935.000000	94.683209 
3934.000000	94.682840 
3933.000000	94.682594 
3932.000000	94.682223 
3931.000000	94.681520 
3930.000000	94.680509 
3929.000000	94.679458 
3928.000000	94.678619 
3927.000000	94.678000 
3926.000000	94.677379 
3925.000000	94.676518 
3924.000000	94.675369 
3923.000000	94.674074 
3922.000000	94.672817 
3921.000000	94.671688 
3920.000000	94.670691 
3919.000000	94.669812 
3918.000000	94.669058 
3917.000000	94.668414 
3916.000000	94.667800 
3915.000000	94.667113 
3914.000000	94.666285 
3913.000000	94.665279 
3912.000000	94.664040 
3911.000000	94.662504 
3910.000000	94.660727 
3909.000000	94.658992 
3908.000000	94.657710 
3907.000000	94.657176 
3906.000000	94.657328 
3905.000000	94.657612 
3904.000000	94.657257 
3903.000000	94.655879 
3902.000000	94.653683 
3901.000000	94.651201 
3900.000000	94.648796 
3899.000000	94.646537 
3898.000000	94.644432 
3897.000000	94.642606 
3896.000000	94.641255 
3895.000000	94.640541 
3894.000000	94.640502 
3893.000000	94.640875 
3892.000000	94.641059 
3891.000000	94.640464 
3890.000000	94.639036 
3889.000000	94.637285 
3888.000000	94.635826 
3887.000000	94.634879 
3886.000000	94.634188 
3885.000000	94.633304 
3884.000000	94.632075 
3883.000000	94.630777 
3882.000000	94.629761 
3881.000000	94.629050 
3880.000000	94.628281 
3879.000000	94.627129 
3878.000000	94.625677 
3877.000000	94.624274 
3876.000000	94.623114 
3875.000000	94.622009 
3874.000000	94.620592 
3873.000000	94.618767 
3872.000000	94.616921 
3871.000000	94.615594 
3870.000000	94.614880 
3869.000000	94.614297 
3868.000000	94.613432 
3867.000000	94.612449 
3866.000000	94.611858 
3865.000000	94.611974 
3864.000000	94.612475 
3863.000000	94.612575 
3862.000000	94.611782 
3861.000000	94.610275 
3860.000000	94.608686 
3859.000000	94.607619 
3858.000000	94.607234 
3857.000000	94.607239 
3856.000000	94.607076 
3855.000000	94.606240 
3854.000000	94.604594 
3853.000000	94.602519 
3852.000000	94.600714 
3851.000000	94.599593 
3850.000000	94.599037 
3849.000000	94.598584 
3848.000000	94.597769 
3847.000000	94.596392 
3846.000000	94.594620 
3845.000000	94.592884 
3844.000000	94.591552 
3843.000000	94.590728 
3842.000000	94.590349 
3841.000000	94.590315 
3840.000000	94.590396 
3839.000000	94.590098 
3838.000000	94.588965 
3837.000000	94.587295 
3836.000000	94.586188 
3835.000000	94.586529 
3834.000000	94.588252 
3833.000000	94.590373 
3832.000000	94.591718 
3831.000000	94.591809 
3830.000000	94.591146 
3829.000000	94.590787 
3828.000000	94.591361 
3827.000000	94.592459 
3826.000000	94.592993 
3825.000000	94.592321 
3824.000000	94.591026 
3823.000000	94.590662 
3822.000000	94.592260 
3821.000000	94.594569 
3820.000000	94.594949 
3819.000000	94.592648 
3818.000000	94.589694 
3817.000000	94.588907 
3816.000000	94.591218 
3815.000000	94.594623 
3814.000000	94.596340 
3813.000000	94.595385 
3812.000000	94.592320 
3811.000000	94.588055 
3810.000000	94.583307 
3809.000000	94.578910 
3808.000000	94.575881 
3807.000000	94.574479 
3806.000000	94.573788 
3805.000000	94.573238 
3804.000000	94.573775 
3803.000000	94.576859 
3802.000000	94.582267 
3801.000000	94.587148 
3800.000000	94.589343 
3799.000000	94.590521 
3798.000000	94.593777 
3797.000000	94.600016 
3796.000000	94.607192 
3795.000000	94.612356 
3794.000000	94.614313 
3793.000000	94.613936 
3792.000000	94.612706 
3791.000000	94.611414 
3790.000000	94.609518 
3789.000000	94.605558 
3788.000000	94.598681 
3787.000000	94.590016 
3786.000000	94.582426 
3785.000000	94.578166 
3784.000000	94.576778 
3783.000000	94.576089 
3782.000000	94.575137 
3781.000000	94.575322 
3780.000000	94.578339 
3779.000000	94.583298 
3778.000000	94.587202 
3777.000000	94.588332 
3776.000000	94.587705 
3775.000000	94.587462 
3774.000000	94.588886 
3773.000000	94.591833 
3772.000000	94.595197 
3771.000000	94.597515 
3770.000000	94.597540 
3769.000000	94.595071 
3768.000000	94.591619 
3767.000000	94.589307 
3766.000000	94.588817 
3765.000000	94.589085 
3764.000000	94.588809 
3763.000000	94.587723 
3762.000000	94.586335 
3761.000000	94.584935 
3760.000000	94.583480 
3759.000000	94.582356 
3758.000000	94.582566 
3757.000000	94.584277 
3756.000000	94.585374 
3755.000000	94.582753 
3754.000000	94.575438 
3753.000000	94.566279 
3752.000000	94.559666 
3751.000000	94.556224 
3750.000000	94.551990 
3749.000000	94.544976 
3748.000000	94.538323 
3747.000000	94.535871 
3746.000000	94.538609 
3745.000000	94.543737 
3744.000000	94.545249 
3743.000000	94.540209 
3742.000000	94.532425 
3741.000000	94.526738 
3740.000000	94.524751 
3739.000000	94.524913 
3738.000000	94.524112 
3737.000000	94.521644 
3736.000000	94.522402 
3735.000000	94.533052 
3734.000000	94.552599 
3733.000000	94.570856 
3732.000000	94.578313 
3731.000000	94.573567 
3730.000000	94.561130 
3729.000000	94.545429 
3728.000000	94.528907 
3727.000000	94.514424 
3726.000000	94.505904 
3725.000000	94.504974 
3724.000000	94.507948 
3723.000000	94.508025 
3722.000000	94.501166 
3721.000000	94.489931 
3720.000000	94.480688 
3719.000000	94.476251 
3718.000000	94.473091 
3717.000000	94.465993 
3716.000000	94.453643 
3715.000000	94.438961 
3714.000000	94.424965 
3713.000000	94.411732 
3712.000000	94.397949 
3711.000000	94.384971 
3710.000000	94.376198 
3709.000000	94.372055 
3708.000000	94.368584 
3707.000000	94.361317 
3706.000000	94.349343 
3705.000000	94.335574 
3704.000000	94.323911 
3703.000000	94.315559 
3702.000000	94.307310 
3701.000000	94.294145 
3700.000000	94.274236 
3699.000000	94.250425 
3698.000000	94.227003 
3697.000000	94.206198 
3696.000000	94.187342 
3695.000000	94.168630 
3694.000000	94.149729 
3693.000000	94.132335 
3692.000000	94.117973 
3691.000000	94.106198 
3690.000000	94.095219 
3689.000000	94.084021 
3688.000000	94.073306 
3687.000000	94.064584 
3686.000000	94.058179 
3685.000000	94.053058 
3684.000000	94.048998 
3683.000000	94.047109 
3682.000000	94.047291 
3681.000000	94.045476 
3680.000000	94.034775 
3679.000000	94.010731 
3678.000000	93.976773 
3677.000000	93.946120 
3676.000000	93.933900 
3675.000000	93.940614 
3674.000000	93.951046 
3673.000000	93.953240 
3672.000000	93.946804 
3671.000000	93.937619 
3670.000000	93.931340 
3669.000000	93.928831 
3668.000000	93.927469 
3667.000000	93.925310 
3666.000000	93.921705 
3665.000000	93.916761 
3664.000000	93.911644 
3663.000000	93.907895 
3662.000000	93.905843 
3661.000000	93.903855 
3660.000000	93.899990 
3659.000000	93.895012 
3658.000000	93.893212 
3657.000000	93.898667 
3656.000000	93.909754 
3655.000000	93.919824 
3654.000000	93.924191 
3653.000000	93.923367 
3652.000000	93.920765 
3651.000000	93.920504 
3650.000000	93.926264 
3649.000000	93.939534 
3648.000000	93.957350 
3647.000000	93.973635 
3646.000000	93.984489 
3645.000000	93.991040 
3644.000000	93.997413 
3643.000000	94.006156 
3642.000000	94.015752 
3641.000000	94.022230 
3640.000000	94.023177 
3639.000000	94.020146 
3638.000000	94.017487 
3637.000000	94.019446 
3636.000000	94.027647 
3635.000000	94.039837 
3634.000000	94.051050 
3633.000000	94.057151 
3632.000000	94.058272 
3631.000000	94.058450 
3630.000000	94.062213 
3629.000000	94.070064 
3628.000000	94.077647 
3627.000000	94.081751 
3626.000000	94.083206 
3625.000000	94.083764 
3624.000000	94.084657 
3623.000000	94.087259 
3622.000000	94.092753 
3621.000000	94.101018 
3620.000000	94.110030 
3619.000000	94.117025 
3618.000000	94.120984 
3617.000000	94.123271 
3616.000000	94.125919 
3615.000000	94.130012 
3614.000000	94.135416 
3613.000000	94.141166 
3612.000000	94.146180 
3611.000000	94.150114 
3610.000000	94.153672 
3609.000000	94.158122 
3608.000000	94.164170 
3607.000000	94.171103 
3606.000000	94.177325 
3605.000000	94.181850 
3604.000000	94.185062 
3603.000000	94.188257 
3602.000000	94.192403 
3601.000000	94.197403 
3600.000000	94.202524 
3599.000000	94.207330 
3598.000000	94.211974 
3597.000000	94.216727 
3596.000000	94.221437 
3595.000000	94.225652 
3594.000000	94.228965 
3593.000000	94.231323 
3592.000000	94.233355 
3591.000000	94.236442 
3590.000000	94.241999 
3589.000000	94.250170 
3588.000000	94.258758 
3587.000000	94.264329 
3586.000000	94.265273 
3585.000000	94.262677 
3584.000000	94.258553 
3583.000000	94.254307 
3582.000000	94.250919 
3581.000000	94.249464 
3580.000000	94.250693 
3579.000000	94.254339 
3578.000000	94.259293 
3577.000000	94.264707 
3576.000000	94.270521 
3575.000000	94.276704 
3574.000000	94.282225 
3573.000000	94.285239 
3572.000000	94.284549 
3571.000000	94.280911 
3570.000000	94.276827 
3569.000000	94.274995 
3568.000000	94.276502 
3567.000000	94.280152 
3566.000000	94.283730 
3565.000000	94.286233 
3564.000000	94.288312 
3563.000000	94.290989 
3562.000000	94.294614 
3561.000000	94.298606 
3560.000000	94.301802 
3559.000000	94.303213 
3558.000000	94.302757 
3557.000000	94.301331 
3556.000000	94.300204 
3555.000000	94.300393 
3554.000000	94.302340 
3553.000000	94.305548 
3552.000000	94.308393 
3551.000000	94.309051 
3550.000000	94.307053 
3549.000000	94.303763 
3548.000000	94.301182 
3547.000000	94.300368 
3546.000000	94.301208 
3545.000000	94.303296 
3544.000000	94.306511 
3543.000000	94.310628 
3542.000000	94.315093 
3541.000000	94.319456 
3540.000000	94.323603 
3539.000000	94.327444 
3538.000000	94.330735 
3537.000000	94.333441 
3536.000000	94.336011 
3535.000000	94.339049 
3534.000000	94.342687 
3533.000000	94.346459 
3532.000000	94.349662 
3531.000000	94.351778 
3530.000000	94.352784 
3529.000000	94.353168 
3528.000000	94.353505 
3527.000000	94.353894 
3526.000000	94.354070 
3525.000000	94.354103 
3524.000000	94.354673 
3523.000000	94.356385 
3522.000000	94.359074 
3521.000000	94.362036 
3520.000000	94.364852 
3519.000000	94.367614 
3518.000000	94.370369 
3517.000000	94.372696 
3516.000000	94.374018 
3515.000000	94.374235 
3514.000000	94.373937 
3513.000000	94.374096 
3512.000000	94.375576 
3511.000000	94.378732 
3510.000000	94.383204 
3509.000000	94.387980 
3508.000000	94.391891 
3507.000000	94.394408 
3506.000000	94.395896 
3505.000000	94.397243 
3504.000000	94.399235 
3503.000000	94.402028 
3502.000000	94.405276 
3501.000000	94.408517 
3500.000000	94.411463 
3499.000000	94.414010 
3498.000000	94.416132 
3497.000000	94.417865 
3496.000000	94.419343 
3495.000000	94.420788 
3494.000000	94.422417 
3493.000000	94.424348 
3492.000000	94.426582 
3491.000000	94.429013 
3490.000000	94.431478 
3489.000000	94.433843 
3488.000000	94.436079 
3487.000000	94.438272 
3486.000000	94.440567 
3485.000000	94.443061 
3484.000000	94.445710 
3483.000000	94.448308 
3482.000000	94.450643 
3481.000000	94.452704 
3480.000000	94.454769 
3479.000000	94.457157 
3478.000000	94.459853 
3477.000000	94.462437 
3476.000000	94.464516 
3475.000000	94.466233 
3474.000000	94.468234 
3473.000000	94.470997 
3472.000000	94.474363 
3471.000000	94.477725 
3470.000000	94.480591 
3469.000000	94.482780 
3468.000000	94.484369 
3467.000000	94.485800 
3466.000000	94.487950 
3465.000000	94.491611 
3464.000000	94.496580 
3463.000000	94.501368 
3462.000000	94.504416 
3461.000000	94.505381 
3460.000000	94.505267 
3459.000000	94.505320 
3458.000000	94.505942 
3457.000000	94.506929 
3456.000000	94.508291 
3455.000000	94.510440 
3454.000000	94.513595 
3453.000000	94.517441 
3452.000000	94.521560 
3451.000000	94.525896 
3450.000000	94.530539 
3449.000000	94.535308 
3448.000000	94.540052 
3447.000000	94.545184 
3446.000000	94.551225 
3445.000000	94.557625 
3444.000000	94.562809 
3443.000000	94.565916 
3442.000000	94.568085 
3441.000000	94.571278 
3440.000000	94.575762 
3439.000000	94.579722 
3438.000000	94.581659 
3437.000000	94.582359 
3436.000000	94.583919 
3435.000000	94.587085 
3434.000000	94.590200 
3433.000000	94.591100 
3432.000000	94.589592 
3431.000000	94.587756 
3430.000000	94.587916 
3429.000000	94.590471 
3428.000000	94.593990 
3427.000000	94.597081 
3426.000000	94.599647 
3425.000000	94.602323 
3424.000000	94.605407 
3423.000000	94.608800 
3422.000000	94.612392 
3421.000000	94.615903 
3420.000000	94.618763 
3419.000000	94.620879 
3418.000000	94.623216 
3417.000000	94.626757 
3416.000000	94.631057 
3415.000000	94.634653 
3414.000000	94.636906 
3413.000000	94.638594 
3412.000000	94.640519 
3411.000000	94.642342 
3410.000000	94.643330 
3409.000000	94.643668 
3408.000000	94.644381 
3407.000000	94.646128 
3406.000000	94.648595 
3405.000000	94.651028 
3404.000000	94.652919 
3403.000000	94.654132 
3402.000000	94.654788 
3401.000000	94.655259 
3400.000000	94.656084 
3399.000000	94.657643 
3398.000000	94.659903 
3397.000000	94.662482 
3396.000000	94.664898 
3395.000000	94.666837 
3394.000000	94.668236 
3393.000000	94.669226 
3392.000000	94.670029 
3391.000000	94.670768 
3390.000000	94.671453 
3389.000000	94.672198 
3388.000000	94.673342 
3387.000000	94.675216 
3386.000000	94.677803 
3385.000000	94.680594 
3384.000000	94.682860 
3383.000000	94.684193 
3382.000000	94.684715 
3381.000000	94.684913 
3380.000000	94.685262 
3379.000000	94.685978 
3378.000000	94.687060 
3377.000000	94.688369 
3376.000000	94.689659 
3375.000000	94.690710 
3374.000000	94.691543 
3373.000000	94.692446 
3372.000000	94.693644 
3371.000000	94.694960 
3370.000000	94.695934 
3369.000000	94.696305 
3368.000000	94.696270 
3367.000000	94.696239 
3366.000000	94.696439 
3365.000000	94.696810 
3364.000000	94.697242 
3363.000000	94.697761 
3362.000000	94.698452 
3361.000000	94.699221 
3360.000000	94.699758 
3359.000000	94.699860 
3358.000000	94.699765 
3357.000000	94.699951 
3356.000000	94.700470 
3355.000000	94.700668 
3354.000000	94.699806 
3353.000000	94.697872 
3352.000000	94.695784 
3351.000000	94.694662 
3350.000000	94.695016 
3349.000000	94.696667 
3348.000000	94.698903 
3347.000000	94.700743 
3346.000000	94.701422 
3345.000000	94.700857 
3344.000000	94.699772 
3343.000000	94.699078 
3342.000000	94.698978 
3341.000000	94.698963 
3340.000000	94.698527 
3339.000000	94.697638 
3338.000000	94.696570 
3337.000000	94.695626 
3336.000000	94.695099 
3335.000000	94.695222 
3334.000000	94.695851 
3333.000000	94.696311 
3332.000000	94.695835 
3331.000000	94.694224 
3330.000000	94.692017 
3329.000000	94.689996 
3328.000000	94.688552 
3327.000000	94.687582 
3326.000000	94.686798 
3325.000000	94.685991 
3324.000000	94.685016 
3323.000000	94.683716 
3322.000000	94.681979 
3321.000000	94.679838 
3320.000000	94.677388 
3319.000000	94.674637 
3318.000000	94.671616 
3317.000000	94.668659 
3316.000000	94.666293 
3315.000000	94.664666 
3314.000000	94.663228 
3313.000000	94.661198 
3312.000000	94.658466 
3311.000000	94.655782 
3310.000000	94.653939 
3309.000000	94.652925 
3308.000000	94.651968 
3307.000000	94.650238 
3306.000000	94.647453 
3305.000000	94.643864 
3304.000000	94.640021 
3303.000000	94.636584 
3302.000000	94.634022 
3301.000000	94.632303 
3300.000000	94.630811 
3299.000000	94.628769 
3298.000000	94.625872 
3297.000000	94.622390 
3296.000000	94.618745 
3295.000000	94.615114 
3294.000000	94.611478 
3293.000000	94.607911 
3292.000000	94.604640 
3291.000000	94.601829 
3290.000000	94.599333 
3289.000000	94.596687 
3288.000000	94.593397 
3287.000000	94.589361 
3286.000000	94.585087 
3285.000000	94.581379 
3284.000000	94.578665 
3283.000000	94.576739 
3282.000000	94.575113 
3281.000000	94.573465 
3280.000000	94.571557 
3279.000000	94.568923 
3278.000000	94.565026 
3277.000000	94.559838 
3276.000000	94.554193 
3275.000000	94.549327 
3274.000000	94.546009 
3273.000000	94.544166 
3272.000000	94.542956 
3271.000000	94.541221 
3270.000000	94.538197 
3269.000000	94.534145 
3268.000000	94.530316 
3267.000000	94.527910 
3266.000000	94.526979 
3265.000000	94.526538 
3264.000000	94.525686 
3263.000000	94.524338 
3262.000000	94.522765 
3261.000000	94.520761 
3260.000000	94.517697 
3259.000000	94.513448 
3258.000000	94.508979 
3257.000000	94.505647 
3256.000000	94.503788 
3255.000000	94.502226 
3254.000000	94.499500 
3253.000000	94.495578 
3252.000000	94.491918 
3251.000000	94.489704 
3250.000000	94.488498 
3249.000000	94.487011 
3248.000000	94.484671 
3247.000000	94.481731 
3246.000000	94.478256 
3245.000000	94.474050 
3244.000000	94.469561 
3243.000000	94.465702 
3242.000000	94.462430 
3241.000000	94.458494 
3240.000000	94.453208 
3239.000000	94.447695 
3238.000000	94.443529 
3237.000000	94.440628 
3236.000000	94.437506 
3235.000000	94.433474 
3234.000000	94.429505 
3233.000000	94.426634 
3232.000000	94.424487 
3231.000000	94.421926 
3230.000000	94.418670 
3229.000000	94.415601 
3228.000000	94.413641 
3227.000000	94.412790 
3226.000000	94.412141 
3225.000000	94.410642 
3224.000000	94.407960 
3223.000000	94.404808 
3222.000000	94.402367 
3221.000000	94.401148 
3220.000000	94.400396 
3219.000000	94.398757 
3218.000000	94.395616 
3217.000000	94.391644 
3216.000000	94.388118 
3215.000000	94.385728 
3214.000000	94.384099 
3213.000000	94.382321 
3212.000000	94.379751 
3211.000000	94.376331 
3210.000000	94.372422 
3209.000000	94.368573 
3208.000000	94.365329 
3207.000000	94.362934 
3206.000000	94.361142 
3205.000000	94.359328 
3204.000000	94.356992 
3203.000000	94.354184 
3202.000000	94.351397 
3201.000000	94.349069 
3200.000000	94.347216 
3199.000000	94.345552 
3198.000000	94.343847 
3197.000000	94.342099 
3196.000000	94.340406 
3195.000000	94.338814 
3194.000000	94.337316 
3193.000000	94.335857 
3192.000000	94.334273 
3191.000000	94.332328 
3190.000000	94.329911 
3189.000000	94.327188 
