PE IR                   SPECTRUM    ASCII       PEDS        1.60        
  -1
~SP.SP
22/12/06
16:41:22.00
23/01/09
15:13:48.00
Administrator

650.000000
4









FRONTIER FT-IR,CPU32 MAIN 00.09.9951 07-SEPTEMBER-2011 11:49:41
MIR TGS
MIR
OPTKBR
90694
0.200000

4.000000
STRONG
RATIO
SPECTRUM
MAGNITUDE
MIRACLE ATR
DOUBLE

COMBINED


0


#HDR
-1
-1
#GR
CM-1
%T
0.00002384185791015625
0.0
4000.000000
-1.000000
3351
8
79.979109
66.388264
#DATA
4000.000000	79.970190 
3999.000000	79.968885 
3998.000000	79.966409 
3997.000000	79.963589 
3996.000000	79.961307 
3995.000000	79.959813 
3994.000000	79.958745 
3993.000000	79.957473 
3992.000000	79.955523 
3991.000000	79.952995 
3990.000000	79.950624 
3989.000000	79.949250 
3988.000000	79.949147 
3987.000000	79.949905 
3986.000000	79.950788 
3985.000000	79.951217 
3984.000000	79.950893 
3983.000000	79.949696 
3982.000000	79.947736 
3981.000000	79.945370 
3980.000000	79.943069 
3979.000000	79.941127 
3978.000000	79.939451 
3977.000000	79.937682 
3976.000000	79.935605 
3975.000000	79.933548 
3974.000000	79.932297 
3973.000000	79.932390 
3972.000000	79.933402 
3971.000000	79.934164 
3970.000000	79.933752 
3969.000000	79.932139 
3968.000000	79.929881 
3967.000000	79.927449 
3966.000000	79.924984 
3965.000000	79.922559 
3964.000000	79.920408 
3963.000000	79.918795 
3962.000000	79.917743 
3961.000000	79.916945 
3960.000000	79.915967 
3959.000000	79.914690 
3958.000000	79.913473 
3957.000000	79.912716 
3956.000000	79.912298 
3955.000000	79.911553 
3954.000000	79.909868 
3953.000000	79.907083 
3952.000000	79.903542 
3951.000000	79.899982 
3950.000000	79.897196 
3949.000000	79.895494 
3948.000000	79.894438 
3947.000000	79.893352 
3946.000000	79.892075 
3945.000000	79.891142 
3944.000000	79.891194 
3943.000000	79.892156 
3942.000000	79.892923 
3941.000000	79.892178 
3940.000000	79.889392 
3939.000000	79.885110 
3938.000000	79.880518 
3937.000000	79.876525 
3936.000000	79.873366 
3935.000000	79.871044 
3934.000000	79.869878 
3933.000000	79.870023 
3932.000000	79.870632 
3931.000000	79.870149 
3930.000000	79.867862 
3929.000000	79.864678 
3928.000000	79.861998 
3927.000000	79.860055 
3926.000000	79.858033 
3925.000000	79.855553 
3924.000000	79.853070 
3923.000000	79.850681 
3922.000000	79.847876 
3921.000000	79.844799 
3920.000000	79.842543 
3919.000000	79.841808 
3918.000000	79.842131 
3917.000000	79.842743 
3916.000000	79.843329 
3915.000000	79.843510 
3914.000000	79.842542 
3913.000000	79.840285 
3912.000000	79.837253 
3911.000000	79.833754 
3910.000000	79.829592 
3909.000000	79.824942 
3908.000000	79.820875 
3907.000000	79.818288 
3906.000000	79.817044 
3905.000000	79.816139 
3904.000000	79.814868 
3903.000000	79.813231 
3902.000000	79.811205 
3901.000000	79.808362 
3900.000000	79.804669 
3899.000000	79.800935 
3898.000000	79.797993 
3897.000000	79.796100 
3896.000000	79.794947 
3895.000000	79.794335 
3894.000000	79.793937 
3893.000000	79.793135 
3892.000000	79.791630 
3891.000000	79.789752 
3890.000000	79.787969 
3889.000000	79.786353 
3888.000000	79.784784 
3887.000000	79.783239 
3886.000000	79.781750 
3885.000000	79.780302 
3884.000000	79.778880 
3883.000000	79.777488 
3882.000000	79.776111 
3881.000000	79.774731 
3880.000000	79.773329 
3879.000000	79.771887 
3878.000000	79.770394 
3877.000000	79.768849 
3876.000000	79.767273 
3875.000000	79.765698 
3874.000000	79.764166 
3873.000000	79.762706 
3872.000000	79.761330 
3871.000000	79.760039 
3870.000000	79.758838 
3869.000000	79.757726 
3868.000000	79.756685 
3867.000000	79.755681 
3866.000000	79.754703 
3865.000000	79.753764 
3864.000000	79.752873 
3863.000000	79.752012 
3862.000000	79.751160 
3861.000000	79.750315 
3860.000000	79.749494 
3859.000000	79.748706 
3858.000000	79.747949 
3857.000000	79.747209 
3856.000000	79.746456 
3855.000000	79.745644 
3854.000000	79.744740 
3853.000000	79.743763 
3852.000000	79.742769 
3851.000000	79.741791 
3850.000000	79.740817 
3849.000000	79.739825 
3848.000000	79.738795 
3847.000000	79.737719 
3846.000000	79.736612 
3845.000000	79.735496 
3844.000000	79.734392 
3843.000000	79.733301 
3842.000000	79.732220 
3841.000000	79.731153 
3840.000000	79.730110 
3839.000000	79.729108 
3838.000000	79.728168 
3837.000000	79.727324 
3836.000000	79.726601 
3835.000000	79.725996 
3834.000000	79.725478 
3833.000000	79.724998 
3832.000000	79.724511 
3831.000000	79.723995 
3830.000000	79.723446 
3829.000000	79.722867 
3828.000000	79.722260 
3827.000000	79.721618 
3826.000000	79.720939 
3825.000000	79.720231 
3824.000000	79.719497 
3823.000000	79.718725 
3822.000000	79.717898 
3821.000000	79.717027 
3820.000000	79.716146 
3819.000000	79.715274 
3818.000000	79.714401 
3817.000000	79.713508 
3816.000000	79.712595 
3815.000000	79.711674 
3814.000000	79.710750 
3813.000000	79.709823 
3812.000000	79.708910 
3811.000000	79.708032 
3810.000000	79.707189 
3809.000000	79.706358 
3808.000000	79.705524 
3807.000000	79.704699 
3806.000000	79.703917 
3805.000000	79.703197 
3804.000000	79.702528 
3803.000000	79.701875 
3802.000000	79.701213 
3801.000000	79.700540 
3800.000000	79.699869 
3799.000000	79.699194 
3798.000000	79.698507 
3797.000000	79.697816 
3796.000000	79.697124 
3795.000000	79.696407 
3794.000000	79.695584 
3793.000000	79.694553 
3792.000000	79.693348 
3791.000000	79.692061 
3790.000000	79.690672 
3789.000000	79.689123 
3788.000000	79.687467 
3787.000000	79.685808 
3786.000000	79.684175 
3785.000000	79.682570 
3784.000000	79.681057 
3783.000000	79.679608 
3782.000000	79.678015 
3781.000000	79.676147 
3780.000000	79.674200 
3779.000000	79.672573 
3778.000000	79.671426 
3777.000000	79.670406 
3776.000000	79.669063 
3775.000000	79.667411 
3774.000000	79.665754 
3773.000000	79.664238 
3772.000000	79.662697 
3771.000000	79.660909 
3770.000000	79.658930 
3769.000000	79.657080 
3768.000000	79.655419 
3767.000000	79.653488 
3766.000000	79.650958 
3765.000000	79.648229 
3764.000000	79.646131 
3763.000000	79.644836 
3762.000000	79.643504 
3761.000000	79.641588 
3760.000000	79.639382 
3759.000000	79.636987 
3758.000000	79.634098 
3757.000000	79.631209 
3756.000000	79.629398 
3755.000000	79.628213 
3754.000000	79.626220 
3753.000000	79.623483 
3752.000000	79.620876 
3751.000000	79.616169 
3750.000000	79.606572 
3749.000000	79.596185 
3748.000000	79.591623 
3747.000000	79.592577 
3746.000000	79.593529 
3745.000000	79.589861 
3744.000000	79.584877 
3743.000000	79.585445 
3742.000000	79.585549 
3741.000000	79.577382 
3740.000000	79.566109 
3739.000000	79.558607 
3738.000000	79.553197 
3737.000000	79.545576 
3736.000000	79.540946 
3735.000000	79.547346 
3734.000000	79.559800 
3733.000000	79.564701 
3732.000000	79.559382 
3731.000000	79.553270 
3730.000000	79.551336 
3729.000000	79.547728 
3728.000000	79.536571 
3727.000000	79.521052 
3726.000000	79.509968 
3725.000000	79.506685 
3724.000000	79.505967 
3723.000000	79.502656 
3722.000000	79.496031 
3721.000000	79.488256 
3720.000000	79.480750 
3719.000000	79.471717 
3718.000000	79.458825 
3717.000000	79.443466 
3716.000000	79.429483 
3715.000000	79.418089 
3714.000000	79.408342 
3713.000000	79.398863 
3712.000000	79.387053 
3711.000000	79.371588 
3710.000000	79.354584 
3709.000000	79.337743 
3708.000000	79.320665 
3707.000000	79.303340 
3706.000000	79.286655 
3705.000000	79.270586 
3704.000000	79.254348 
3703.000000	79.237447 
3702.000000	79.219788 
3701.000000	79.202450 
3700.000000	79.187194 
3699.000000	79.173002 
3698.000000	79.157418 
3697.000000	79.141185 
3696.000000	79.126732 
3695.000000	79.112551 
3694.000000	79.094353 
3693.000000	79.072416 
3692.000000	79.051393 
3691.000000	79.032625 
3690.000000	79.011240 
3689.000000	78.985243 
3688.000000	78.964074 
3687.000000	78.957166 
3686.000000	78.960502 
3685.000000	78.964270 
3684.000000	78.965946 
3683.000000	78.968021 
3682.000000	78.968568 
3681.000000	78.960299 
3680.000000	78.941419 
3679.000000	78.918592 
3678.000000	78.896822 
3677.000000	78.875004 
3676.000000	78.852651 
3675.000000	78.838976 
3674.000000	78.840848 
3673.000000	78.845829 
3672.000000	78.839725 
3671.000000	78.824379 
3670.000000	78.808756 
3669.000000	78.799184 
3668.000000	78.794543 
3667.000000	78.789444 
3666.000000	78.781985 
3665.000000	78.773297 
3664.000000	78.764184 
3663.000000	78.754532 
3662.000000	78.744563 
3661.000000	78.735306 
3660.000000	78.728757 
3659.000000	78.725778 
3658.000000	78.724832 
3657.000000	78.722949 
3656.000000	78.719881 
3655.000000	78.718817 
3654.000000	78.718340 
3653.000000	78.713487 
3652.000000	78.704862 
3651.000000	78.698786 
3650.000000	78.699676 
3649.000000	78.706571 
3648.000000	78.715770 
3647.000000	78.724466 
3646.000000	78.731648 
3645.000000	78.738221 
3644.000000	78.746321 
3643.000000	78.756947 
3642.000000	78.767523 
3641.000000	78.772372 
3640.000000	78.767345 
3639.000000	78.754677 
3638.000000	78.743686 
3637.000000	78.742761 
3636.000000	78.751419 
3635.000000	78.761954 
3634.000000	78.768487 
3633.000000	78.771623 
3632.000000	78.774111 
3631.000000	78.777856 
3630.000000	78.782883 
3629.000000	78.787264 
3628.000000	78.791352 
3627.000000	78.795050 
3626.000000	78.793729 
3625.000000	78.787095 
3624.000000	78.780137 
3623.000000	78.776452 
3622.000000	78.776351 
3621.000000	78.779492 
3620.000000	78.785833 
3619.000000	78.793658 
3618.000000	78.800834 
3617.000000	78.806669 
3616.000000	78.811521 
3615.000000	78.816671 
3614.000000	78.823965 
3613.000000	78.833933 
3612.000000	78.844539 
3611.000000	78.852922 
3610.000000	78.859182 
3609.000000	78.866985 
3608.000000	78.878740 
3607.000000	78.891964 
3606.000000	78.901751 
3605.000000	78.906138 
3604.000000	78.907531 
3603.000000	78.909252 
3602.000000	78.912236 
3601.000000	78.915538 
3600.000000	78.918792 
3599.000000	78.922319 
3598.000000	78.927059 
3597.000000	78.934488 
3596.000000	78.944682 
3595.000000	78.955054 
3594.000000	78.961963 
3593.000000	78.963792 
3592.000000	78.962250 
3591.000000	78.961483 
3590.000000	78.965419 
3589.000000	78.975252 
3588.000000	78.987861 
3587.000000	78.997900 
3586.000000	79.002116 
3585.000000	79.000664 
3584.000000	78.995886 
3583.000000	78.990722 
3582.000000	78.987369 
3581.000000	78.986724 
3580.000000	78.988478 
3579.000000	78.991475 
3578.000000	78.994560 
3577.000000	78.997663 
3576.000000	79.001542 
3575.000000	79.006518 
3574.000000	79.011339 
3573.000000	79.013603 
3572.000000	79.011502 
3571.000000	79.005399 
3570.000000	78.997928 
3569.000000	78.992819 
3568.000000	78.992768 
3567.000000	78.997549 
3566.000000	79.004334 
3565.000000	79.010357 
3564.000000	79.014860 
3563.000000	79.018519 
3562.000000	79.021853 
3561.000000	79.024669 
3560.000000	79.026583 
3559.000000	79.027482 
3558.000000	79.027413 
3557.000000	79.026653 
3556.000000	79.026046 
3555.000000	79.026643 
3554.000000	79.028758 
3553.000000	79.031338 
3552.000000	79.032499 
3551.000000	79.030888 
3550.000000	79.026655 
3549.000000	79.021456 
3548.000000	79.017528 
3547.000000	79.016184 
3546.000000	79.017221 
3545.000000	79.019806 
3544.000000	79.023440 
3543.000000	79.027665 
3542.000000	79.031517 
3541.000000	79.033997 
3540.000000	79.034946 
3539.000000	79.035145 
3538.000000	79.035688 
3537.000000	79.037217 
3536.000000	79.039678 
3535.000000	79.042558 
3534.000000	79.045271 
3533.000000	79.047366 
3532.000000	79.048520 
3531.000000	79.048562 
3530.000000	79.047667 
3529.000000	79.046586 
3528.000000	79.046254 
3527.000000	79.046958 
3526.000000	79.048164 
3525.000000	79.049291 
3524.000000	79.050354 
3523.000000	79.051683 
3522.000000	79.053309 
3521.000000	79.054929 
3520.000000	79.056408 
3519.000000	79.057975 
3518.000000	79.059866 
3517.000000	79.061965 
3516.000000	79.063887 
3515.000000	79.065377 
3514.000000	79.066529 
3513.000000	79.067673 
3512.000000	79.069142 
3511.000000	79.071087 
3510.000000	79.073391 
3509.000000	79.075773 
3508.000000	79.077939 
3507.000000	79.079785 
3506.000000	79.081416 
3505.000000	79.083012 
3504.000000	79.084724 
3503.000000	79.086568 
3502.000000	79.088480 
3501.000000	79.090393 
3500.000000	79.092254 
3499.000000	79.094043 
3498.000000	79.095759 
3497.000000	79.097422 
3496.000000	79.099068 
3495.000000	79.100728 
3494.000000	79.102419 
3493.000000	79.104143 
3492.000000	79.105892 
3491.000000	79.107650 
3490.000000	79.109397 
3489.000000	79.111116 
3488.000000	79.112810 
3487.000000	79.114499 
3486.000000	79.116201 
3485.000000	79.117903 
3484.000000	79.119563 
3483.000000	79.121148 
3482.000000	79.122666 
3481.000000	79.124154 
3480.000000	79.125641 
3479.000000	79.127130 
3478.000000	79.128608 
3477.000000	79.130055 
3476.000000	79.131468 
3475.000000	79.132858 
3474.000000	79.134249 
3473.000000	79.135656 
3472.000000	79.137070 
3471.000000	79.138466 
3470.000000	79.139822 
3469.000000	79.141122 
3468.000000	79.142357 
3467.000000	79.143548 
3466.000000	79.144755 
3465.000000	79.146049 
3464.000000	79.147450 
3463.000000	79.148868 
3462.000000	79.150180 
3461.000000	79.151316 
3460.000000	79.152311 
3459.000000	79.153305 
3458.000000	79.154418 
3457.000000	79.155676 
3456.000000	79.157028 
3455.000000	79.158427 
3454.000000	79.159849 
3453.000000	79.161262 
3452.000000	79.162647 
3451.000000	79.164056 
3450.000000	79.165552 
3449.000000	79.167105 
3448.000000	79.168627 
3447.000000	79.170114 
3446.000000	79.171618 
3445.000000	79.173024 
3444.000000	79.174059 
3443.000000	79.174650 
3442.000000	79.175153 
3441.000000	79.176040 
3440.000000	79.177412 
3439.000000	79.178899 
3438.000000	79.180042 
3437.000000	79.180724 
3436.000000	79.181230 
3435.000000	79.181849 
3434.000000	79.182510 
3433.000000	79.182894 
3432.000000	79.182896 
3431.000000	79.182854 
3430.000000	79.183243 
3429.000000	79.184237 
3428.000000	79.185687 
3427.000000	79.187347 
3426.000000	79.188957 
3425.000000	79.190238 
3424.000000	79.191080 
3423.000000	79.191720 
3422.000000	79.192515 
3421.000000	79.193485 
3420.000000	79.194366 
3419.000000	79.195178 
3418.000000	79.196314 
3417.000000	79.197848 
3416.000000	79.199182 
3415.000000	79.199759 
3414.000000	79.199864 
3413.000000	79.200307 
3412.000000	79.201324 
3411.000000	79.202200 
3410.000000	79.202161 
3409.000000	79.201285 
3408.000000	79.200357 
3407.000000	79.200057 
3406.000000	79.200500 
3405.000000	79.201402 
3404.000000	79.202284 
3403.000000	79.202592 
3402.000000	79.201979 
3401.000000	79.200718 
3400.000000	79.199745 
3399.000000	79.199979 
3398.000000	79.201591 
3397.000000	79.203896 
3396.000000	79.205876 
3395.000000	79.206905 
3394.000000	79.206982 
3393.000000	79.206583 
3392.000000	79.206362 
3391.000000	79.206762 
3390.000000	79.207790 
3389.000000	79.209068 
3388.000000	79.210211 
3387.000000	79.211186 
3386.000000	79.212237 
3385.000000	79.213428 
3384.000000	79.214376 
3383.000000	79.214612 
3382.000000	79.214171 
3381.000000	79.213643 
3380.000000	79.213566 
3379.000000	79.213923 
3378.000000	79.214365 
3377.000000	79.214750 
3376.000000	79.215279 
3375.000000	79.216090 
3374.000000	79.216898 
3373.000000	79.217177 
3372.000000	79.216606 
3371.000000	79.215324 
3370.000000	79.213896 
3369.000000	79.212910 
3368.000000	79.212559 
3367.000000	79.212602 
3366.000000	79.212639 
3365.000000	79.212485 
3364.000000	79.212327 
3363.000000	79.212490 
3362.000000	79.213013 
3361.000000	79.213460 
3360.000000	79.213241 
3359.000000	79.212188 
3358.000000	79.210743 
3357.000000	79.209533 
3356.000000	79.208774 
3355.000000	79.208143 
3354.000000	79.207170 
3353.000000	79.205726 
3352.000000	79.204161 
3351.000000	79.203005 
3350.000000	79.202506 
3349.000000	79.202435 
3348.000000	79.202239 
3347.000000	79.201488 
3346.000000	79.200222 
3345.000000	79.198873 
3344.000000	79.197819 
3343.000000	79.197027 
3342.000000	79.196156 
3341.000000	79.194952 
3340.000000	79.193444 
3339.000000	79.191751 
3338.000000	79.189892 
3337.000000	79.187895 
3336.000000	79.186010 
3335.000000	79.184623 
3334.000000	79.183880 
3333.000000	79.183401 
3332.000000	79.182451 
3331.000000	79.180619 
3330.000000	79.178136 
3329.000000	79.175661 
3328.000000	79.173595 
3327.000000	79.171758 
3326.000000	79.169767 
3325.000000	79.167518 
3324.000000	79.165231 
3323.000000	79.163046 
3322.000000	79.160791 
3321.000000	79.158196 
3320.000000	79.155248 
3319.000000	79.152198 
3318.000000	79.149281 
3317.000000	79.146555 
3316.000000	79.143956 
3315.000000	79.141384 
3314.000000	79.138717 
3313.000000	79.135857 
3312.000000	79.132829 
3311.000000	79.129799 
3310.000000	79.126898 
3309.000000	79.124054 
3308.000000	79.121054 
3307.000000	79.117767 
3306.000000	79.114255 
3305.000000	79.110700 
3304.000000	79.107291 
3303.000000	79.104144 
3302.000000	79.101268 
3301.000000	79.098503 
3300.000000	79.095527 
3299.000000	79.092102 
3298.000000	79.088241 
3297.000000	79.084179 
3296.000000	79.080212 
3295.000000	79.076491 
3294.000000	79.073014 
3293.000000	79.069679 
3292.000000	79.066375 
3291.000000	79.063053 
3290.000000	79.059709 
3289.000000	79.056318 
3288.000000	79.052820 
3287.000000	79.049188 
3286.000000	79.045492 
3285.000000	79.041870 
3284.000000	79.038411 
3283.000000	79.035100 
3282.000000	79.031895 
3281.000000	79.028781 
3280.000000	79.025691 
3279.000000	79.022435 
3278.000000	79.018798 
3277.000000	79.014734 
3276.000000	79.010470 
3275.000000	79.006335 
3274.000000	79.002506 
3273.000000	78.998973 
3272.000000	78.995672 
3271.000000	78.992564 
3270.000000	78.989601 
3269.000000	78.986714 
3268.000000	78.983859 
3267.000000	78.980958 
3266.000000	78.977802 
3265.000000	78.974177 
3264.000000	78.970196 
3263.000000	78.966400 
3262.000000	78.963290 
3261.000000	78.960707 
3260.000000	78.957852 
3259.000000	78.954165 
3258.000000	78.950026 
3257.000000	78.946333 
3256.000000	78.943359 
3255.000000	78.940310 
3254.000000	78.936357 
3253.000000	78.931873 
3252.000000	78.928178 
3251.000000	78.925919 
3250.000000	78.924258 
3249.000000	78.921937 
3248.000000	78.918775 
3247.000000	78.915564 
3246.000000	78.912695 
3245.000000	78.909639 
3244.000000	78.905866 
3243.000000	78.901422 
3242.000000	78.896283 
3241.000000	78.889985 
3240.000000	78.882655 
3239.000000	78.875866 
3238.000000	78.871334 
3237.000000	78.868893 
3236.000000	78.866602 
3235.000000	78.863002 
3234.000000	78.858506 
3233.000000	78.854243 
3232.000000	78.850570 
3231.000000	78.847291 
3230.000000	78.844577 
3229.000000	78.842755 
3228.000000	78.841457 
3227.000000	78.839648 
3226.000000	78.836476 
3225.000000	78.831867 
3224.000000	78.826617 
3223.000000	78.822199 
3222.000000	78.820070 
3221.000000	78.820505 
3220.000000	78.821983 
3219.000000	78.822221 
3218.000000	78.820113 
3217.000000	78.816309 
3216.000000	78.812141 
3215.000000	78.808312 
3214.000000	78.804617 
3213.000000	78.800646 
3212.000000	78.796389 
3211.000000	78.792086 
3210.000000	78.787634 
3209.000000	78.782523 
3208.000000	78.776642 
3207.000000	78.770893 
3206.000000	78.766490 
3205.000000	78.763574 
3204.000000	78.761016 
3203.000000	78.757774 
3202.000000	78.754031 
3201.000000	78.750749 
3200.000000	78.748558 
3199.000000	78.747495 
3198.000000	78.747341 
3197.000000	78.747577 
3196.000000	78.747276 
3195.000000	78.745722 
3194.000000	78.743193 
3193.000000	78.740650 
3192.000000	78.738556 
3191.000000	78.736324 
3190.000000	78.733123 
3189.000000	78.728936 
