PE IR                   SPECTRUM    ASCII       PEDS        1.60        
  -1
~SP.SP
22/12/06
16:27:11.00
23/01/09
15:06:47.00
Administrator

650.000000
4









FRONTIER FT-IR,CPU32 MAIN 00.09.9951 07-SEPTEMBER-2011 11:49:41
MIR TGS
MIR
OPTKBR
90694
0.200000

4.000000
STRONG
RATIO
SPECTRUM
MAGNITUDE
MIRACLE ATR
DOUBLE

COMBINED


0


#HDR
-1
-1
#GR
CM-1
%T
0.00002384185791015625
0.0
4000.000000
-1.000000
3351
8
86.664221
81.915594
#DATA
4000.000000	86.651608 
3999.000000	86.648553 
3998.000000	86.645609 
3997.000000	86.643262 
3996.000000	86.641204 
3995.000000	86.638247 
3994.000000	86.633479 
3993.000000	86.627157 
3992.000000	86.620573 
3991.000000	86.615251 
3990.000000	86.612285 
3989.000000	86.612057 
3988.000000	86.614088 
3987.000000	86.617215 
3986.000000	86.620159 
3985.000000	86.622182 
3984.000000	86.623107 
3983.000000	86.622919 
3982.000000	86.621561 
3981.000000	86.618806 
3980.000000	86.614271 
3979.000000	86.607923 
3978.000000	86.600600 
3977.000000	86.593721 
3976.000000	86.588297 
3975.000000	86.584395 
3974.000000	86.581494 
3973.000000	86.579090 
3972.000000	86.576874 
3971.000000	86.574732 
3970.000000	86.572923 
3969.000000	86.572041 
3968.000000	86.572302 
3967.000000	86.572887 
3966.000000	86.572500 
3965.000000	86.570525 
3964.000000	86.567162 
3963.000000	86.562586 
3962.000000	86.556627 
3961.000000	86.549563 
3960.000000	86.543045 
3959.000000	86.539717 
3958.000000	86.541405 
3957.000000	86.547460 
3956.000000	86.554655 
3955.000000	86.558847 
3954.000000	86.557236 
3953.000000	86.549284 
3952.000000	86.536233 
3951.000000	86.520330 
3950.000000	86.504333 
3949.000000	86.490337 
3948.000000	86.478195 
3947.000000	86.466166 
3946.000000	86.454104 
3945.000000	86.445125 
3944.000000	86.442919 
3943.000000	86.447868 
3942.000000	86.456361 
3941.000000	86.463873 
3940.000000	86.468260 
3939.000000	86.469983 
3938.000000	86.470228 
3937.000000	86.469357 
3936.000000	86.466901 
3935.000000	86.462552 
3934.000000	86.456771 
3933.000000	86.450028 
3932.000000	86.441911 
3931.000000	86.431930 
3930.000000	86.421764 
3929.000000	86.415497 
3928.000000	86.416432 
3927.000000	86.423393 
3926.000000	86.430366 
3925.000000	86.430840 
3924.000000	86.422801 
3923.000000	86.409126 
3922.000000	86.393726 
3921.000000	86.378948 
3920.000000	86.367007 
3919.000000	86.360764 
3918.000000	86.361463 
3917.000000	86.367303 
3916.000000	86.375600 
3915.000000	86.385510 
3914.000000	86.397377 
3913.000000	86.410034 
3912.000000	86.420255 
3911.000000	86.424517 
3910.000000	86.420702 
3909.000000	86.409703 
3908.000000	86.395954 
3907.000000	86.384335 
3906.000000	86.375302 
3905.000000	86.363130 
3904.000000	86.341890 
3903.000000	86.313023 
3902.000000	86.285154 
3901.000000	86.265178 
3900.000000	86.253900 
3899.000000	86.250299 
3898.000000	86.255285 
3897.000000	86.269081 
3896.000000	86.287531 
3895.000000	86.305770 
3894.000000	86.322668 
3893.000000	86.337519 
3892.000000	86.346556 
3891.000000	86.346803 
3890.000000	86.341585 
3889.000000	86.337525 
3888.000000	86.336343 
3887.000000	86.333380 
3886.000000	86.324829 
3885.000000	86.312517 
3884.000000	86.302625 
3883.000000	86.298769 
3882.000000	86.298709 
3881.000000	86.299439 
3880.000000	86.301400 
3879.000000	86.306517 
3878.000000	86.315341 
3877.000000	86.325262 
3876.000000	86.331872 
3875.000000	86.332864 
3874.000000	86.329827 
3873.000000	86.326943 
3872.000000	86.327173 
3871.000000	86.329017 
3870.000000	86.329106 
3869.000000	86.327500 
3868.000000	86.327258 
3867.000000	86.329136 
3866.000000	86.330894 
3865.000000	86.331890 
3864.000000	86.333888 
3863.000000	86.337500 
3862.000000	86.341298 
3861.000000	86.343866 
3860.000000	86.345491 
3859.000000	86.347463 
3858.000000	86.350537 
3857.000000	86.354722 
3856.000000	86.359611 
3855.000000	86.363908 
3854.000000	86.365964 
3853.000000	86.365545 
3852.000000	86.364946 
3851.000000	86.366154 
3850.000000	86.367888 
3849.000000	86.368344 
3848.000000	86.368105 
3847.000000	86.368480 
3846.000000	86.369610 
3845.000000	86.371160 
3844.000000	86.372937 
3843.000000	86.374851 
3842.000000	86.376907 
3841.000000	86.379288 
3840.000000	86.382082 
3839.000000	86.384893 
3838.000000	86.387200 
3837.000000	86.389107 
3836.000000	86.391273 
3835.000000	86.393893 
3834.000000	86.396359 
3833.000000	86.397908 
3832.000000	86.398369 
3831.000000	86.398281 
3830.000000	86.398604 
3829.000000	86.399856 
3828.000000	86.401477 
3827.000000	86.402412 
3826.000000	86.402460 
3825.000000	86.402912 
3824.000000	86.405373 
3823.000000	86.409646 
3822.000000	86.413093 
3821.000000	86.413313 
3820.000000	86.411891 
3819.000000	86.412906 
3818.000000	86.416172 
3817.000000	86.416857 
3816.000000	86.412923 
3815.000000	86.407372 
3814.000000	86.403896 
3813.000000	86.401603 
3812.000000	86.396437 
3811.000000	86.388903 
3810.000000	86.384517 
3809.000000	86.385810 
3808.000000	86.389431 
3807.000000	86.390362 
3806.000000	86.388564 
3805.000000	86.388833 
3804.000000	86.393335 
3803.000000	86.397876 
3802.000000	86.397017 
3801.000000	86.390677 
3800.000000	86.385370 
3799.000000	86.386241 
3798.000000	86.388519 
3797.000000	86.384871 
3796.000000	86.376146 
3795.000000	86.367770 
3794.000000	86.362163 
3793.000000	86.357224 
3792.000000	86.350052 
3791.000000	86.341009 
3790.000000	86.332596 
3789.000000	86.325983 
3788.000000	86.320487 
3787.000000	86.315696 
3786.000000	86.312043 
3785.000000	86.309839 
3784.000000	86.308824 
3783.000000	86.308798 
3782.000000	86.309394 
3781.000000	86.309532 
3780.000000	86.308166 
3779.000000	86.306056 
3778.000000	86.305506 
3777.000000	86.307233 
3776.000000	86.307950 
3775.000000	86.304237 
3774.000000	86.298549 
3773.000000	86.297226 
3772.000000	86.302523 
3771.000000	86.308792 
3770.000000	86.308534 
3769.000000	86.301390 
3768.000000	86.293065 
3767.000000	86.285371 
3766.000000	86.274560 
3765.000000	86.260664 
3764.000000	86.250788 
3763.000000	86.250467 
3762.000000	86.256446 
3761.000000	86.260158 
3760.000000	86.257299 
3759.000000	86.250942 
3758.000000	86.245781 
3757.000000	86.242586 
3756.000000	86.240216 
3755.000000	86.240381 
3754.000000	86.246384 
3753.000000	86.259082 
3752.000000	86.274769 
3751.000000	86.284169 
3750.000000	86.279369 
3749.000000	86.262109 
3748.000000	86.241513 
3747.000000	86.225016 
3746.000000	86.212724 
3745.000000	86.197110 
3744.000000	86.172278 
3743.000000	86.147342 
3742.000000	86.133480 
3741.000000	86.120960 
3740.000000	86.099225 
3739.000000	86.079439 
3738.000000	86.069328 
3737.000000	86.060641 
3736.000000	86.048940 
3735.000000	86.042436 
3734.000000	86.048819 
3733.000000	86.062561 
3732.000000	86.073181 
3731.000000	86.079066 
3730.000000	86.083562 
3729.000000	86.082102 
3728.000000	86.066016 
3727.000000	86.036960 
3726.000000	86.008618 
3725.000000	85.994168 
3724.000000	85.994302 
3723.000000	85.998107 
3722.000000	85.996799 
3721.000000	85.992992 
3720.000000	85.993386 
3719.000000	85.998338 
3718.000000	86.001591 
3717.000000	85.998450 
3716.000000	85.991067 
3715.000000	85.985867 
3714.000000	85.987429 
3713.000000	85.995126 
3712.000000	86.003777 
3711.000000	86.007962 
3710.000000	86.006992 
3709.000000	86.000762 
3708.000000	85.985685 
3707.000000	85.960781 
3706.000000	85.931989 
3705.000000	85.907202 
3704.000000	85.889866 
3703.000000	85.877560 
3702.000000	85.865061 
3701.000000	85.849066 
3700.000000	85.830635 
3699.000000	85.812009 
3698.000000	85.793232 
3697.000000	85.774125 
3696.000000	85.756987 
3695.000000	85.744760 
3694.000000	85.736997 
3693.000000	85.729862 
3692.000000	85.720733 
3691.000000	85.709555 
3690.000000	85.695823 
3689.000000	85.679205 
3688.000000	85.663095 
3687.000000	85.651982 
3686.000000	85.643991 
3685.000000	85.632595 
3684.000000	85.618278 
3683.000000	85.609782 
3682.000000	85.611206 
3681.000000	85.615106 
3680.000000	85.610543 
3679.000000	85.595541 
3678.000000	85.579025 
3677.000000	85.569259 
3676.000000	85.564554 
3675.000000	85.560049 
3674.000000	85.559704 
3673.000000	85.565099 
3672.000000	85.560681 
3671.000000	85.536323 
3670.000000	85.504734 
3669.000000	85.484452 
3668.000000	85.482855 
3667.000000	85.489154 
3666.000000	85.486560 
3665.000000	85.475760 
3664.000000	85.468877 
3663.000000	85.470688 
3662.000000	85.476978 
3661.000000	85.481337 
3660.000000	85.481273 
3659.000000	85.479680 
3658.000000	85.481084 
3657.000000	85.486547 
3656.000000	85.493402 
3655.000000	85.499861 
3654.000000	85.506188 
3653.000000	85.509886 
3652.000000	85.507982 
3651.000000	85.502416 
3650.000000	85.497789 
3649.000000	85.500982 
3648.000000	85.516185 
3647.000000	85.535347 
3646.000000	85.546639 
3645.000000	85.551393 
3644.000000	85.560409 
3643.000000	85.580203 
3642.000000	85.608395 
3641.000000	85.637519 
3640.000000	85.660432 
3639.000000	85.673695 
3638.000000	85.679310 
3637.000000	85.684102 
3636.000000	85.693688 
3635.000000	85.704940 
3634.000000	85.709135 
3633.000000	85.703443 
3632.000000	85.695283 
3631.000000	85.693275 
3630.000000	85.696505 
3629.000000	85.695157 
3628.000000	85.686331 
3627.000000	85.680773 
3626.000000	85.680933 
3625.000000	85.675702 
3624.000000	85.663664 
3623.000000	85.654034 
3622.000000	85.652136 
3621.000000	85.658311 
3620.000000	85.668941 
3619.000000	85.676671 
3618.000000	85.676329 
3617.000000	85.669808 
3616.000000	85.663194 
3615.000000	85.661903 
3614.000000	85.667233 
3613.000000	85.674656 
3612.000000	85.677950 
3611.000000	85.675234 
3610.000000	85.670620 
3609.000000	85.670961 
3608.000000	85.680262 
3607.000000	85.696580 
3606.000000	85.714183 
3605.000000	85.728535 
3604.000000	85.739496 
3603.000000	85.750006 
3602.000000	85.761513 
3601.000000	85.772186 
3600.000000	85.779458 
3599.000000	85.782482 
3598.000000	85.781696 
3597.000000	85.777720 
3596.000000	85.772467 
3595.000000	85.768420 
3594.000000	85.765600 
3593.000000	85.761438 
3592.000000	85.753776 
3591.000000	85.742889 
3590.000000	85.731121 
3589.000000	85.720463 
3588.000000	85.711267 
3587.000000	85.704449 
3586.000000	85.703126 
3585.000000	85.710352 
3584.000000	85.725812 
3583.000000	85.746234 
3582.000000	85.767690 
3581.000000	85.787563 
3580.000000	85.804851 
3579.000000	85.818634 
3578.000000	85.827774 
3577.000000	85.832967 
3576.000000	85.837865 
3575.000000	85.845953 
3574.000000	85.855545 
3573.000000	85.858938 
3572.000000	85.847627 
3571.000000	85.818502 
3570.000000	85.776015 
3569.000000	85.730509 
3568.000000	85.693867 
3567.000000	85.674287 
3566.000000	85.673021 
3565.000000	85.686072 
3564.000000	85.708854 
3563.000000	85.738264 
3562.000000	85.771104 
3561.000000	85.802646 
3560.000000	85.828078 
3559.000000	85.844768 
3558.000000	85.853174 
3557.000000	85.856082 
3556.000000	85.856864 
3555.000000	85.858163 
3554.000000	85.861156 
3553.000000	85.865015 
3552.000000	85.867225 
3551.000000	85.865192 
3550.000000	85.857459 
3549.000000	85.843612 
3548.000000	85.824400 
3547.000000	85.803045 
3546.000000	85.785668 
3545.000000	85.778531 
3544.000000	85.784518 
3543.000000	85.802024 
3542.000000	85.825949 
3541.000000	85.849704 
3540.000000	85.868050 
3539.000000	85.879419 
3538.000000	85.885905 
3537.000000	85.891038 
3536.000000	85.897166 
3535.000000	85.904548 
3534.000000	85.912264 
3533.000000	85.919176 
3532.000000	85.923992 
3531.000000	85.925291 
3530.000000	85.922305 
3529.000000	85.915583 
3528.000000	85.906732 
3527.000000	85.897527 
3526.000000	85.889526 
3525.000000	85.884377 
3524.000000	85.883629 
3523.000000	85.887773 
3522.000000	85.895714 
3521.000000	85.905656 
3520.000000	85.916434 
3519.000000	85.927790 
3518.000000	85.939464 
3517.000000	85.950131 
3516.000000	85.957446 
3515.000000	85.959467 
3514.000000	85.956385 
3513.000000	85.951055 
3512.000000	85.947649 
3511.000000	85.949119 
3510.000000	85.955429 
3509.000000	85.963716 
3508.000000	85.970276 
3507.000000	85.972978 
3506.000000	85.972058 
3505.000000	85.969314 
3504.000000	85.967016 
3503.000000	85.967043 
3502.000000	85.970282 
3501.000000	85.976411 
3500.000000	85.984238 
3499.000000	85.992310 
3498.000000	85.999153 
3497.000000	86.003618 
3496.000000	86.005658 
3495.000000	86.006663 
3494.000000	86.008596 
3493.000000	86.012587 
3492.000000	86.018258 
3491.000000	86.024203 
3490.000000	86.029068 
3489.000000	86.032319 
3488.000000	86.034242 
3487.000000	86.035582 
3486.000000	86.037118 
3485.000000	86.039222 
3484.000000	86.041598 
3483.000000	86.043481 
3482.000000	86.044336 
3481.000000	86.044520 
3480.000000	86.045148 
3479.000000	86.047095 
3478.000000	86.050198 
3477.000000	86.053528 
3476.000000	86.056462 
3475.000000	86.059328 
3474.000000	86.062689 
3473.000000	86.066237 
3472.000000	86.068918 
3471.000000	86.070193 
3470.000000	86.070678 
3469.000000	86.071434 
3468.000000	86.072962 
3467.000000	86.075214 
3466.000000	86.078237 
3465.000000	86.082145 
3464.000000	86.086369 
3463.000000	86.089599 
3462.000000	86.090931 
3461.000000	86.090753 
3460.000000	86.090489 
3459.000000	86.091402 
3458.000000	86.093689 
3457.000000	86.096687 
3456.000000	86.099731 
3455.000000	86.102787 
3454.000000	86.106218 
3453.000000	86.110114 
3452.000000	86.114075 
3451.000000	86.117553 
3450.000000	86.120217 
3449.000000	86.122030 
3448.000000	86.123240 
3447.000000	86.124352 
3446.000000	86.125830 
3445.000000	86.127685 
3444.000000	86.129581 
3443.000000	86.131478 
3442.000000	86.133906 
3441.000000	86.137306 
3440.000000	86.141245 
3439.000000	86.144646 
3438.000000	86.146805 
3437.000000	86.147928 
3436.000000	86.148694 
3435.000000	86.149602 
3434.000000	86.150862 
3433.000000	86.152535 
3432.000000	86.154528 
3431.000000	86.156618 
3430.000000	86.158565 
3429.000000	86.160268 
3428.000000	86.161889 
3427.000000	86.163823 
3426.000000	86.166277 
3425.000000	86.168818 
3424.000000	86.170556 
3423.000000	86.170970 
3422.000000	86.170517 
3421.000000	86.170410 
3420.000000	86.171906 
3419.000000	86.175677 
3418.000000	86.181265 
3417.000000	86.186782 
3416.000000	86.189839 
3415.000000	86.189541 
3414.000000	86.187536 
3413.000000	86.186647 
3412.000000	86.188088 
3411.000000	86.190587 
3410.000000	86.192253 
3409.000000	86.192546 
3408.000000	86.192114 
3407.000000	86.191472 
3406.000000	86.190478 
3405.000000	86.188841 
3404.000000	86.186482 
3403.000000	86.183293 
3402.000000	86.179201 
3401.000000	86.174856 
3400.000000	86.171908 
3399.000000	86.172049 
3398.000000	86.175540 
3397.000000	86.180708 
3396.000000	86.184941 
3395.000000	86.186447 
3394.000000	86.185179 
3393.000000	86.182453 
3392.000000	86.179964 
3391.000000	86.178896 
3390.000000	86.179589 
3389.000000	86.181631 
3388.000000	86.184197 
3387.000000	86.186607 
3386.000000	86.188683 
3385.000000	86.190520 
3384.000000	86.191958 
3383.000000	86.192461 
3382.000000	86.191687 
3381.000000	86.190063 
3380.000000	86.188604 
3379.000000	86.188036 
3378.000000	86.188088 
3377.000000	86.187785 
3376.000000	86.186517 
3375.000000	86.184727 
3374.000000	86.183381 
3373.000000	86.182733 
3372.000000	86.181862 
3371.000000	86.179686 
3370.000000	86.176312 
3369.000000	86.173176 
3368.000000	86.171616 
3367.000000	86.171485 
3366.000000	86.171358 
3365.000000	86.170017 
3364.000000	86.167616 
3363.000000	86.165424 
3362.000000	86.164436 
3361.000000	86.164269 
3360.000000	86.163505 
3359.000000	86.161193 
3358.000000	86.157877 
3357.000000	86.155027 
3356.000000	86.153461 
3355.000000	86.152560 
3354.000000	86.150998 
3353.000000	86.148129 
3352.000000	86.144562 
3351.000000	86.141610 
3350.000000	86.140283 
3349.000000	86.140670 
3348.000000	86.141758 
3347.000000	86.141887 
3346.000000	86.139928 
3345.000000	86.136186 
3344.000000	86.132126 
3343.000000	86.128913 
3342.000000	86.126328 
3341.000000	86.123378 
3340.000000	86.119628 
3339.000000	86.115575 
3338.000000	86.111885 
3337.000000	86.108886 
3336.000000	86.106914 
3335.000000	86.106493 
3334.000000	86.107644 
3333.000000	86.109208 
3332.000000	86.109458 
3331.000000	86.107508 
3330.000000	86.103819 
3329.000000	86.099474 
3328.000000	86.095194 
3327.000000	86.091217 
3326.000000	86.087758 
3325.000000	86.085107 
3324.000000	86.083269 
3323.000000	86.081623 
3322.000000	86.079105 
3321.000000	86.074879 
3320.000000	86.068854 
3319.000000	86.061674 
3318.000000	86.054430 
3317.000000	86.048304 
3316.000000	86.044086 
3315.000000	86.041466 
3314.000000	86.038800 
3313.000000	86.034318 
3312.000000	86.027880 
3311.000000	86.021217 
3310.000000	86.016121 
3309.000000	86.012597 
3308.000000	86.009219 
3307.000000	86.004898 
3306.000000	85.999795 
3305.000000	85.994648 
3304.000000	85.989959 
3303.000000	85.985971 
3302.000000	85.982770 
3301.000000	85.979987 
3300.000000	85.976712 
3299.000000	85.972162 
3298.000000	85.966364 
3297.000000	85.960044 
3296.000000	85.953977 
3295.000000	85.948515 
3294.000000	85.943563 
3293.000000	85.938799 
3292.000000	85.933995 
3291.000000	85.929280 
3290.000000	85.924914 
3289.000000	85.920695 
3288.000000	85.915871 
3287.000000	85.909971 
3286.000000	85.903602 
3285.000000	85.898123 
3284.000000	85.894345 
3283.000000	85.891771 
3282.000000	85.889082 
3281.000000	85.885322 
3280.000000	85.880337 
3279.000000	85.874382 
3278.000000	85.867756 
3277.000000	85.860876 
3276.000000	85.854302 
3275.000000	85.848403 
3274.000000	85.843101 
3273.000000	85.838109 
3272.000000	85.833352 
3271.000000	85.828999 
3270.000000	85.825159 
3269.000000	85.821798 
3268.000000	85.818935 
3267.000000	85.816573 
3266.000000	85.814315 
3265.000000	85.811430 
3264.000000	85.807542 
3263.000000	85.803032 
3262.000000	85.798467 
3261.000000	85.793814 
3260.000000	85.788552 
3259.000000	85.782527 
3258.000000	85.776410 
3257.000000	85.771147 
3256.000000	85.767092 
3255.000000	85.763793 
3254.000000	85.760472 
3253.000000	85.756587 
3252.000000	85.752040 
3251.000000	85.747001 
3250.000000	85.741615 
3249.000000	85.735885 
3248.000000	85.729818 
3247.000000	85.723669 
3246.000000	85.717999 
3245.000000	85.713368 
3244.000000	85.709777 
3243.000000	85.706329 
3242.000000	85.701639 
3241.000000	85.694920 
3240.000000	85.686777 
3239.000000	85.679006 
3238.000000	85.673124 
3237.000000	85.669177 
3236.000000	85.665972 
3235.000000	85.662242 
3234.000000	85.657611 
3233.000000	85.652441 
3232.000000	85.647312 
3231.000000	85.642740 
3230.000000	85.639012 
3229.000000	85.635956 
3228.000000	85.632905 
3227.000000	85.629083 
3226.000000	85.624115 
3225.000000	85.618292 
3224.000000	85.612451 
3223.000000	85.607512 
3222.000000	85.603848 
3221.000000	85.600980 
3220.000000	85.597843 
3219.000000	85.593615 
3218.000000	85.588310 
3217.000000	85.582656 
3216.000000	85.577442 
3215.000000	85.572940 
3214.000000	85.568841 
3213.000000	85.564585 
3212.000000	85.559762 
3211.000000	85.554276 
3210.000000	85.548245 
3209.000000	85.541897 
3208.000000	85.535629 
3207.000000	85.529974 
3206.000000	85.525244 
3205.000000	85.521150 
3204.000000	85.517019 
3203.000000	85.512466 
3202.000000	85.507681 
3201.000000	85.503090 
3200.000000	85.498950 
3199.000000	85.495279 
3198.000000	85.491872 
3197.000000	85.488341 
3196.000000	85.484415 
3195.000000	85.480247 
3194.000000	85.476278 
3193.000000	85.472700 
3192.000000	85.469157 
3191.000000	85.465093 
3190.000000	85.460375 
3189.000000	85.455433 
