PE IR                   SPECTRUM    ASCII       PEDS        1.60        
  -1
~SP.SP
22/12/06
16:37:03.00
23/01/09
15:01:37.00
Administrator

650.000000
4









FRONTIER FT-IR,CPU32 MAIN 00.09.9951 07-SEPTEMBER-2011 11:49:41
MIR TGS
MIR
OPTKBR
90694
0.200000

4.000000
STRONG
RATIO
SPECTRUM
MAGNITUDE
MIRACLE ATR
DOUBLE

COMBINED


0


#HDR
-1
-1
#GR
CM-1
%T
0.00002384185791015625
0.0
4000.000000
-1.000000
3351
8
79.675940
65.131562
#DATA
4000.000000	79.655706 
3999.000000	79.655345 
3998.000000	79.651655 
3997.000000	79.645632 
3996.000000	79.639483 
3995.000000	79.634765 
3994.000000	79.632249 
3993.000000	79.631958 
3992.000000	79.632851 
3991.000000	79.633530 
3990.000000	79.633640 
3989.000000	79.633824 
3988.000000	79.634462 
3987.000000	79.635062 
3986.000000	79.634940 
3985.000000	79.634095 
3984.000000	79.633178 
3983.000000	79.632644 
3982.000000	79.632189 
3981.000000	79.631126 
3980.000000	79.629222 
3979.000000	79.627031 
3978.000000	79.625419 
3977.000000	79.624737 
3976.000000	79.624430 
3975.000000	79.623582 
3974.000000	79.621830 
3973.000000	79.619591 
3972.000000	79.617457 
3971.000000	79.615616 
3970.000000	79.614014 
3969.000000	79.612639 
3968.000000	79.611384 
3967.000000	79.609909 
3966.000000	79.607916 
3965.000000	79.605538 
3964.000000	79.603282 
3963.000000	79.601542 
3962.000000	79.600283 
3961.000000	79.599184 
3960.000000	79.597998 
3959.000000	79.596774 
3958.000000	79.595750 
3957.000000	79.595000 
3956.000000	79.594226 
3955.000000	79.592953 
3954.000000	79.590975 
3953.000000	79.588435 
3952.000000	79.585686 
3951.000000	79.583126 
3950.000000	79.581051 
3949.000000	79.579542 
3948.000000	79.578370 
3947.000000	79.577123 
3946.000000	79.575514 
3945.000000	79.573614 
3944.000000	79.571819 
3943.000000	79.570517 
3942.000000	79.569684 
3941.000000	79.568786 
3940.000000	79.567133 
3939.000000	79.564388 
3938.000000	79.560755 
3937.000000	79.556769 
3936.000000	79.552996 
3935.000000	79.549942 
3934.000000	79.548137 
3933.000000	79.547733 
3932.000000	79.547925 
3931.000000	79.547264 
3930.000000	79.544995 
3929.000000	79.541863 
3928.000000	79.539300 
3927.000000	79.537833 
3926.000000	79.536757 
3925.000000	79.535239 
3924.000000	79.532944 
3923.000000	79.529449 
3922.000000	79.524359 
3921.000000	79.518563 
3920.000000	79.514188 
3919.000000	79.512590 
3918.000000	79.513229 
3917.000000	79.514842 
3916.000000	79.516800 
3915.000000	79.518701 
3914.000000	79.519715 
3913.000000	79.519454 
3912.000000	79.518028 
3911.000000	79.515133 
3910.000000	79.510209 
3909.000000	79.503730 
3908.000000	79.497773 
3907.000000	79.494045 
3906.000000	79.492082 
3905.000000	79.489640 
3904.000000	79.485472 
3903.000000	79.480677 
3902.000000	79.476829 
3901.000000	79.473992 
3900.000000	79.471567 
3899.000000	79.469642 
3898.000000	79.468291 
3897.000000	79.466901 
3896.000000	79.464979 
3895.000000	79.463580 
3894.000000	79.463901 
3893.000000	79.465307 
3892.000000	79.465741 
3891.000000	79.464304 
3890.000000	79.462111 
3889.000000	79.459982 
3888.000000	79.457813 
3887.000000	79.455547 
3886.000000	79.453507 
3885.000000	79.452037 
3884.000000	79.450932 
3883.000000	79.449657 
3882.000000	79.448289 
3881.000000	79.447231 
3880.000000	79.446500 
3879.000000	79.445826 
3878.000000	79.444948 
3877.000000	79.443778 
3876.000000	79.442398 
3875.000000	79.440962 
3874.000000	79.439665 
3873.000000	79.438577 
3872.000000	79.437589 
3871.000000	79.436604 
3870.000000	79.435686 
3869.000000	79.434934 
3868.000000	79.434321 
3867.000000	79.433769 
3866.000000	79.433268 
3865.000000	79.432855 
3864.000000	79.432519 
3863.000000	79.432223 
3862.000000	79.431948 
3861.000000	79.431704 
3860.000000	79.431500 
3859.000000	79.431334 
3858.000000	79.431190 
3857.000000	79.431044 
3856.000000	79.430868 
3855.000000	79.430624 
3854.000000	79.430290 
3853.000000	79.429891 
3852.000000	79.429482 
3851.000000	79.429091 
3850.000000	79.428708 
3849.000000	79.428318 
3848.000000	79.427908 
3847.000000	79.427471 
3846.000000	79.427019 
3845.000000	79.426572 
3844.000000	79.426144 
3843.000000	79.425740 
3842.000000	79.425361 
3841.000000	79.425006 
3840.000000	79.424674 
3839.000000	79.424356 
3838.000000	79.424053 
3837.000000	79.423775 
3836.000000	79.423546 
3835.000000	79.423377 
3834.000000	79.423260 
3833.000000	79.423174 
3832.000000	79.423094 
3831.000000	79.423004 
3830.000000	79.422902 
3829.000000	79.422786 
3828.000000	79.422652 
3827.000000	79.422487 
3826.000000	79.422281 
3825.000000	79.422032 
3824.000000	79.421736 
3823.000000	79.421374 
3822.000000	79.420935 
3821.000000	79.420432 
3820.000000	79.419895 
3819.000000	79.419336 
3818.000000	79.418732 
3817.000000	79.418060 
3816.000000	79.417323 
3815.000000	79.416540 
3814.000000	79.415721 
3813.000000	79.414872 
3812.000000	79.414005 
3811.000000	79.413134 
3810.000000	79.412251 
3809.000000	79.411330 
3808.000000	79.410360 
3807.000000	79.409360 
3806.000000	79.408365 
3805.000000	79.407404 
3804.000000	79.406469 
3803.000000	79.405530 
3802.000000	79.404559 
3801.000000	79.403549 
3800.000000	79.402505 
3799.000000	79.401423 
3798.000000	79.400293 
3797.000000	79.399113 
3796.000000	79.397889 
3795.000000	79.396620 
3794.000000	79.395306 
3793.000000	79.393947 
3792.000000	79.392541 
3791.000000	79.391085 
3790.000000	79.389578 
3789.000000	79.388031 
3788.000000	79.386452 
3787.000000	79.384839 
3786.000000	79.383180 
3785.000000	79.381474 
3784.000000	79.379769 
3783.000000	79.378118 
3782.000000	79.376469 
3781.000000	79.374719 
3780.000000	79.372899 
3779.000000	79.371212 
3778.000000	79.369798 
3777.000000	79.368413 
3776.000000	79.366653 
3775.000000	79.364505 
3774.000000	79.362400 
3773.000000	79.360723 
3772.000000	79.359351 
3771.000000	79.357743 
3770.000000	79.355610 
3769.000000	79.353283 
3768.000000	79.351026 
3767.000000	79.348444 
3766.000000	79.345439 
3765.000000	79.343036 
3764.000000	79.342406 
3763.000000	79.342924 
3762.000000	79.342325 
3761.000000	79.339572 
3760.000000	79.335603 
3759.000000	79.331608 
3758.000000	79.328118 
3757.000000	79.325783 
3756.000000	79.325114 
3755.000000	79.324971 
3754.000000	79.323969 
3753.000000	79.323068 
3752.000000	79.323875 
3751.000000	79.323274 
3750.000000	79.316456 
3749.000000	79.306478 
3748.000000	79.301093 
3747.000000	79.301950 
3746.000000	79.304235 
3745.000000	79.301745 
3744.000000	79.295430 
3743.000000	79.290979 
3742.000000	79.283102 
3741.000000	79.266407 
3740.000000	79.248357 
3739.000000	79.236842 
3738.000000	79.230258 
3737.000000	79.223511 
3736.000000	79.219596 
3735.000000	79.224826 
3734.000000	79.235690 
3733.000000	79.241537 
3732.000000	79.239502 
3731.000000	79.235187 
3730.000000	79.230673 
3729.000000	79.221522 
3728.000000	79.205460 
3727.000000	79.187829 
3726.000000	79.176568 
3725.000000	79.172401 
3724.000000	79.167836 
3723.000000	79.157163 
3722.000000	79.141790 
3721.000000	79.127671 
3720.000000	79.119266 
3719.000000	79.115446 
3718.000000	79.111687 
3717.000000	79.105531 
3716.000000	79.097662 
3715.000000	79.088674 
3714.000000	79.079185 
3713.000000	79.069694 
3712.000000	79.058432 
3711.000000	79.043152 
3710.000000	79.024786 
3709.000000	79.005344 
3708.000000	78.985308 
3707.000000	78.964812 
3706.000000	78.944495 
3705.000000	78.924714 
3704.000000	78.905297 
3703.000000	78.885905 
3702.000000	78.866276 
3701.000000	78.847698 
3700.000000	78.832464 
3699.000000	78.820028 
3698.000000	78.807519 
3697.000000	78.794408 
3696.000000	78.782303 
3695.000000	78.770062 
3694.000000	78.754093 
3693.000000	78.734218 
3692.000000	78.713882 
3691.000000	78.693691 
3690.000000	78.669655 
3689.000000	78.641723 
3688.000000	78.620002 
3687.000000	78.612285 
3686.000000	78.612780 
3685.000000	78.611830 
3684.000000	78.608524 
3683.000000	78.607147 
3682.000000	78.606641 
3681.000000	78.599241 
3680.000000	78.581559 
3679.000000	78.559130 
3678.000000	78.536968 
3677.000000	78.513889 
3676.000000	78.488910 
3675.000000	78.471218 
3674.000000	78.468230 
3673.000000	78.468401 
3672.000000	78.458609 
3671.000000	78.440822 
3670.000000	78.423057 
3669.000000	78.411012 
3668.000000	78.404031 
3667.000000	78.397923 
3666.000000	78.391874 
3665.000000	78.386555 
3664.000000	78.380861 
3663.000000	78.372904 
3662.000000	78.362334 
3661.000000	78.350597 
3660.000000	78.340174 
3659.000000	78.332185 
3658.000000	78.325381 
3657.000000	78.317436 
3656.000000	78.309014 
3655.000000	78.303805 
3654.000000	78.300405 
3653.000000	78.294264 
3652.000000	78.286292 
3651.000000	78.281563 
3650.000000	78.282840 
3649.000000	78.289928 
3648.000000	78.301295 
3647.000000	78.314014 
3646.000000	78.324101 
3645.000000	78.329485 
3644.000000	78.332108 
3643.000000	78.335964 
3642.000000	78.342613 
3641.000000	78.348353 
3640.000000	78.347202 
3639.000000	78.337444 
3638.000000	78.325385 
3637.000000	78.319050 
3636.000000	78.319524 
3635.000000	78.321715 
3634.000000	78.322724 
3633.000000	78.324793 
3632.000000	78.329126 
3631.000000	78.333461 
3630.000000	78.334871 
3629.000000	78.334456 
3628.000000	78.338903 
3627.000000	78.348163 
3626.000000	78.351380 
3625.000000	78.344019 
3624.000000	78.331136 
3623.000000	78.318759 
3622.000000	78.310780 
3621.000000	78.310520 
3620.000000	78.319562 
3619.000000	78.333986 
3618.000000	78.347667 
3617.000000	78.358505 
3616.000000	78.368449 
3615.000000	78.380103 
3614.000000	78.394300 
3613.000000	78.409417 
3612.000000	78.422482 
3611.000000	78.431567 
3610.000000	78.438595 
3609.000000	78.448797 
3608.000000	78.465176 
3607.000000	78.484549 
3606.000000	78.500367 
3605.000000	78.509385 
3604.000000	78.513662 
3603.000000	78.516742 
3602.000000	78.519946 
3601.000000	78.523162 
3600.000000	78.527549 
3599.000000	78.534530 
3598.000000	78.544458 
3597.000000	78.556835 
3596.000000	78.569964 
3595.000000	78.581207 
3594.000000	78.588316 
3593.000000	78.590238 
3592.000000	78.587539 
3591.000000	78.583163 
3590.000000	78.581754 
3589.000000	78.587209 
3588.000000	78.599254 
3587.000000	78.613075 
3586.000000	78.623393 
3585.000000	78.628346 
3584.000000	78.629335 
3583.000000	78.628593 
3582.000000	78.627369 
3581.000000	78.626203 
3580.000000	78.625755 
3579.000000	78.626767 
3578.000000	78.629766 
3577.000000	78.635251 
3576.000000	78.643276 
3575.000000	78.652445 
3574.000000	78.659703 
3573.000000	78.661823 
3572.000000	78.657471 
3571.000000	78.648065 
3570.000000	78.637018 
3569.000000	78.628510 
3568.000000	78.626226 
3567.000000	78.631204 
3566.000000	78.640644 
3565.000000	78.650083 
3564.000000	78.657203 
3563.000000	78.662743 
3562.000000	78.668289 
3561.000000	78.674214 
3560.000000	78.679544 
3559.000000	78.683094 
3558.000000	78.684340 
3557.000000	78.683716 
3556.000000	78.682566 
3555.000000	78.682421 
3554.000000	78.683941 
3553.000000	78.686308 
3552.000000	78.687746 
3551.000000	78.686813 
3550.000000	78.683319 
3549.000000	78.678351 
3548.000000	78.673797 
3547.000000	78.671392 
3546.000000	78.671948 
3545.000000	78.675347 
3544.000000	78.680992 
3543.000000	78.688004 
3542.000000	78.695146 
3541.000000	78.701049 
3540.000000	78.704743 
3539.000000	78.706115 
3538.000000	78.706217 
3537.000000	78.706909 
3536.000000	78.709670 
3535.000000	78.714528 
3534.000000	78.720190 
3533.000000	78.725100 
3532.000000	78.728337 
3531.000000	78.729738 
3530.000000	78.729725 
3529.000000	78.729267 
3528.000000	78.729401 
3527.000000	78.730458 
3526.000000	78.731957 
3525.000000	78.733486 
3524.000000	78.735335 
3523.000000	78.737989 
3522.000000	78.741408 
3521.000000	78.745132 
3520.000000	78.748907 
3519.000000	78.752776 
3518.000000	78.756562 
3517.000000	78.759638 
3516.000000	78.761451 
3515.000000	78.762142 
3514.000000	78.762477 
3513.000000	78.763274 
3512.000000	78.764940 
3511.000000	78.767480 
3510.000000	78.770604 
3509.000000	78.773796 
3508.000000	78.776504 
3507.000000	78.778525 
3506.000000	78.780093 
3505.000000	78.781656 
3504.000000	78.783513 
3503.000000	78.785651 
3502.000000	78.787908 
3501.000000	78.790119 
3500.000000	78.792175 
3499.000000	78.794018 
3498.000000	78.795635 
3497.000000	78.797088 
3496.000000	78.798498 
3495.000000	78.799957 
3494.000000	78.801466 
3493.000000	78.802999 
3492.000000	78.804589 
3491.000000	78.806328 
3490.000000	78.808252 
3489.000000	78.810265 
3488.000000	78.812194 
3487.000000	78.813934 
3486.000000	78.815511 
3485.000000	78.817028 
3484.000000	78.818541 
3483.000000	78.820030 
3482.000000	78.821472 
3481.000000	78.822907 
3480.000000	78.824406 
3479.000000	78.825987 
3478.000000	78.827581 
3477.000000	78.829077 
3476.000000	78.830434 
3475.000000	78.831732 
3474.000000	78.833116 
3473.000000	78.834669 
3472.000000	78.836333 
3471.000000	78.837944 
3470.000000	78.839388 
3469.000000	78.840667 
3468.000000	78.841840 
3467.000000	78.842992 
3466.000000	78.844283 
3465.000000	78.845901 
3464.000000	78.847850 
3463.000000	78.849857 
3462.000000	78.851631 
3461.000000	78.853127 
3460.000000	78.854547 
3459.000000	78.856097 
3458.000000	78.857790 
3457.000000	78.859491 
3456.000000	78.861119 
3455.000000	78.862748 
3454.000000	78.864452 
3453.000000	78.866137 
3452.000000	78.867667 
3451.000000	78.869114 
3450.000000	78.870629 
3449.000000	78.872160 
3448.000000	78.873592 
3447.000000	78.875172 
3446.000000	78.877301 
3445.000000	78.879775 
3444.000000	78.881848 
3443.000000	78.883323 
3442.000000	78.884986 
3441.000000	78.887454 
3440.000000	78.889898 
3439.000000	78.890617 
3438.000000	78.888902 
3437.000000	78.885884 
3436.000000	78.883560 
3435.000000	78.883097 
3434.000000	78.884250 
3433.000000	78.885921 
3432.000000	78.887350 
3431.000000	78.888807 
3430.000000	78.891012 
3429.000000	78.894096 
3428.000000	78.897277 
3427.000000	78.899580 
3426.000000	78.900624 
3425.000000	78.900692 
3424.000000	78.900407 
3423.000000	78.900551 
3422.000000	78.901839 
3421.000000	78.904327 
3420.000000	78.907250 
3419.000000	78.909837 
3418.000000	78.912070 
3417.000000	78.914103 
3416.000000	78.915396 
3415.000000	78.915305 
3414.000000	78.914386 
3413.000000	78.914002 
3412.000000	78.914267 
3411.000000	78.913544 
3410.000000	78.910716 
3409.000000	78.907085 
3408.000000	78.905099 
3407.000000	78.905553 
3406.000000	78.907109 
3405.000000	78.908124 
3404.000000	78.907885 
3403.000000	78.906177 
3402.000000	78.903024 
3401.000000	78.899471 
3400.000000	78.897639 
3399.000000	78.899093 
3398.000000	78.903254 
3397.000000	78.907620 
3396.000000	78.909528 
3395.000000	78.907901 
3394.000000	78.903787 
3393.000000	78.899749 
3392.000000	78.898166 
3391.000000	78.899497 
3390.000000	78.902295 
3389.000000	78.905055 
3388.000000	78.907961 
3387.000000	78.912457 
3386.000000	78.919164 
3385.000000	78.926488 
3384.000000	78.931618 
3383.000000	78.932975 
3382.000000	78.931479 
3381.000000	78.929489 
3380.000000	78.928473 
3379.000000	78.927851 
3378.000000	78.926243 
3377.000000	78.923455 
3376.000000	78.920856 
3375.000000	78.919909 
3374.000000	78.920684 
3373.000000	78.921905 
3372.000000	78.922195 
3371.000000	78.921061 
3370.000000	78.918888 
3369.000000	78.916424 
3368.000000	78.914412 
3367.000000	78.913390 
3366.000000	78.913391 
3365.000000	78.913860 
3364.000000	78.914164 
3363.000000	78.914228 
3362.000000	78.914379 
3361.000000	78.914555 
3360.000000	78.914115 
3359.000000	78.912730 
3358.000000	78.911115 
3357.000000	78.910345 
3356.000000	78.910468 
3355.000000	78.910263 
3354.000000	78.908577 
3353.000000	78.905525 
3352.000000	78.902348 
3351.000000	78.900273 
3350.000000	78.899640 
3349.000000	78.900051 
3348.000000	78.900764 
3347.000000	78.901013 
3346.000000	78.900321 
3345.000000	78.898703 
3344.000000	78.896636 
3343.000000	78.894662 
3342.000000	78.892947 
3341.000000	78.891338 
3340.000000	78.889690 
3339.000000	78.888005 
3338.000000	78.886327 
3337.000000	78.884670 
3336.000000	78.883117 
3335.000000	78.881868 
3334.000000	78.881047 
3333.000000	78.880431 
3332.000000	78.879491 
3331.000000	78.877830 
3330.000000	78.875463 
3329.000000	78.872694 
3328.000000	78.869777 
3327.000000	78.866808 
3326.000000	78.863962 
3325.000000	78.861590 
3324.000000	78.859955 
3323.000000	78.858860 
3322.000000	78.857652 
3321.000000	78.855699 
3320.000000	78.852795 
3319.000000	78.849097 
3318.000000	78.844909 
3317.000000	78.840742 
3316.000000	78.837347 
3315.000000	78.835256 
3314.000000	78.834130 
3313.000000	78.832791 
3312.000000	78.830327 
3311.000000	78.826992 
3310.000000	78.823728 
3309.000000	78.820920 
3308.000000	78.818029 
3307.000000	78.814388 
3306.000000	78.809882 
3305.000000	78.804845 
3304.000000	78.799874 
3303.000000	78.795823 
3302.000000	78.793429 
3301.000000	78.792572 
3300.000000	78.791994 
3299.000000	78.790104 
3298.000000	78.786136 
3297.000000	78.780460 
3296.000000	78.774094 
3295.000000	78.767885 
3294.000000	78.762018 
3293.000000	78.756206 
3292.000000	78.750451 
3291.000000	78.745559 
3290.000000	78.742398 
3289.000000	78.740594 
3288.000000	78.738383 
3287.000000	78.734295 
3286.000000	78.728784 
3285.000000	78.723817 
3284.000000	78.720905 
3283.000000	78.719932 
3282.000000	78.719688 
3281.000000	78.718881 
3280.000000	78.716522 
3279.000000	78.711919 
3278.000000	78.704995 
3277.000000	78.696626 
3276.000000	78.688269 
3275.000000	78.681107 
3274.000000	78.675723 
3273.000000	78.672307 
3272.000000	78.670608 
3271.000000	78.669671 
3270.000000	78.668289 
3269.000000	78.666104 
3268.000000	78.663940 
3267.000000	78.662632 
3266.000000	78.661716 
3265.000000	78.659784 
3264.000000	78.656219 
3263.000000	78.652085 
3262.000000	78.648864 
3261.000000	78.646626 
3260.000000	78.644058 
3259.000000	78.640335 
3258.000000	78.636203 
3257.000000	78.632854 
3256.000000	78.630227 
3255.000000	78.627084 
3254.000000	78.622708 
3253.000000	78.617895 
3252.000000	78.614054 
3251.000000	78.611653 
3250.000000	78.609899 
3249.000000	78.607719 
3248.000000	78.604705 
3247.000000	78.601103 
3246.000000	78.597307 
3245.000000	78.593593 
3244.000000	78.590082 
3243.000000	78.586633 
3242.000000	78.582835 
3241.000000	78.578412 
3240.000000	78.573669 
3239.000000	78.569303 
3238.000000	78.565678 
3237.000000	78.562486 
3236.000000	78.559206 
3235.000000	78.555716 
3234.000000	78.552255 
3233.000000	78.548946 
3232.000000	78.545673 
3231.000000	78.542368 
3230.000000	78.539179 
3229.000000	78.536254 
3228.000000	78.533515 
3227.000000	78.530689 
3226.000000	78.527528 
3225.000000	78.523981 
3224.000000	78.520210 
3223.000000	78.516540 
3222.000000	78.513265 
3221.000000	78.510463 
3220.000000	78.507915 
3219.000000	78.505163 
3218.000000	78.501903 
3217.000000	78.498200 
3216.000000	78.494442 
3215.000000	78.490983 
3214.000000	78.487846 
3213.000000	78.484783 
3212.000000	78.481524 
3211.000000	78.477980 
3210.000000	78.474248 
3209.000000	78.470527 
3208.000000	78.467036 
3207.000000	78.463899 
3206.000000	78.461050 
3205.000000	78.458245 
3204.000000	78.455245 
3203.000000	78.452011 
3202.000000	78.448678 
3201.000000	78.445409 
3200.000000	78.442328 
3199.000000	78.439534 
3198.000000	78.437046 
3197.000000	78.434723 
3196.000000	78.432348 
3195.000000	78.429867 
3194.000000	78.427481 
3193.000000	78.425414 
3192.000000	78.423564 
3191.000000	78.421453 
3190.000000	78.418609 
3189.000000	78.414999 
