PE IR                   SPECTRUM    ASCII       PEDS        1.60        
  -1
~SP.SP
22/12/06
16:17:01.00
23/01/09
15:11:31.00
Administrator

650.000000
4









FRONTIER FT-IR,CPU32 MAIN 00.09.9951 07-SEPTEMBER-2011 11:49:41
MIR TGS
MIR
OPTKBR
90694
0.200000

4.000000
STRONG
RATIO
SPECTRUM
MAGNITUDE
MIRACLE ATR
DOUBLE

COMBINED


0


#HDR
-1
-1
#GR
CM-1
%T
0.00002384185791015625
0.0
4000.000000
-1.000000
3351
8
98.032078
87.683299
#DATA
4000.000000	97.982806 
3999.000000	97.980332 
3998.000000	97.973895 
3997.000000	97.965363 
3996.000000	97.958007 
3995.000000	97.953429 
3994.000000	97.951475 
3993.000000	97.950852 
3992.000000	97.950006 
3991.000000	97.948235 
3990.000000	97.946093 
3989.000000	97.944738 
3988.000000	97.944788 
3987.000000	97.945765 
3986.000000	97.946677 
3985.000000	97.947001 
3984.000000	97.946770 
3983.000000	97.945886 
3982.000000	97.943917 
3981.000000	97.940763 
3980.000000	97.937234 
3979.000000	97.934613 
3978.000000	97.933506 
3977.000000	97.933188 
3976.000000	97.932203 
3975.000000	97.929831 
3974.000000	97.926777 
3973.000000	97.924327 
3972.000000	97.922819 
3971.000000	97.921355 
3970.000000	97.918932 
3969.000000	97.915513 
3968.000000	97.911892 
3967.000000	97.908801 
3966.000000	97.906327 
3965.000000	97.904156 
3964.000000	97.902058 
3963.000000	97.899990 
3962.000000	97.897894 
3961.000000	97.895648 
3960.000000	97.893354 
3959.000000	97.891517 
3958.000000	97.890636 
3957.000000	97.890619 
3956.000000	97.890654 
3955.000000	97.889777 
3954.000000	97.887648 
3953.000000	97.884621 
3952.000000	97.881334 
3951.000000	97.878246 
3950.000000	97.875485 
3949.000000	97.873029 
3948.000000	97.870841 
3947.000000	97.868875 
3946.000000	97.867083 
3945.000000	97.865466 
3944.000000	97.864029 
3943.000000	97.862591 
3942.000000	97.860783 
3941.000000	97.858346 
3940.000000	97.855336 
3939.000000	97.852067 
3938.000000	97.848882 
3937.000000	97.845953 
3936.000000	97.843359 
3935.000000	97.841283 
3934.000000	97.839896 
3933.000000	97.838978 
3932.000000	97.837783 
3931.000000	97.835657 
3930.000000	97.832702 
3929.000000	97.829729 
3928.000000	97.827450 
3927.000000	97.825848 
3926.000000	97.824379 
3925.000000	97.822464 
3924.000000	97.819750 
3923.000000	97.816221 
3922.000000	97.812313 
3921.000000	97.808689 
3920.000000	97.805728 
3919.000000	97.803329 
3918.000000	97.801283 
3917.000000	97.799577 
3916.000000	97.798180 
3915.000000	97.796795 
3914.000000	97.795191 
3913.000000	97.793358 
3912.000000	97.791269 
3911.000000	97.788743 
3910.000000	97.785742 
3909.000000	97.782668 
3908.000000	97.780089 
3907.000000	97.778285 
3906.000000	97.777003 
3905.000000	97.775554 
3904.000000	97.773244 
3903.000000	97.769919 
3902.000000	97.766006 
3901.000000	97.762202 
3900.000000	97.758975 
3899.000000	97.756364 
3898.000000	97.754224 
3897.000000	97.752454 
3896.000000	97.751025 
3895.000000	97.749811 
3894.000000	97.748579 
3893.000000	97.747154 
3892.000000	97.745543 
3891.000000	97.743822 
3890.000000	97.741952 
3889.000000	97.739897 
3888.000000	97.737801 
3887.000000	97.735917 
3886.000000	97.734325 
3885.000000	97.732845 
3884.000000	97.731244 
3883.000000	97.729508 
3882.000000	97.727783 
3881.000000	97.726188 
3880.000000	97.724700 
3879.000000	97.723216 
3878.000000	97.721670 
3877.000000	97.720077 
3876.000000	97.718496 
3875.000000	97.716956 
3874.000000	97.715397 
3873.000000	97.713702 
3872.000000	97.711856 
3871.000000	97.710074 
3870.000000	97.708613 
3869.000000	97.707396 
3868.000000	97.705965 
3867.000000	97.704051 
3866.000000	97.702057 
3865.000000	97.700665 
3864.000000	97.699970 
3863.000000	97.699321 
3862.000000	97.698331 
3861.000000	97.697229 
3860.000000	97.696385 
3859.000000	97.695948 
3858.000000	97.695807 
3857.000000	97.695580 
3856.000000	97.694635 
3855.000000	97.692694 
3854.000000	97.690238 
3853.000000	97.687775 
3852.000000	97.685273 
3851.000000	97.682811 
3850.000000	97.680815 
3849.000000	97.679411 
3848.000000	97.678110 
3847.000000	97.676277 
3846.000000	97.673838 
3845.000000	97.671233 
3844.000000	97.668946 
3843.000000	97.667063 
3842.000000	97.665283 
3841.000000	97.663366 
3840.000000	97.661405 
3839.000000	97.659550 
3838.000000	97.657769 
3837.000000	97.656056 
3836.000000	97.654542 
3835.000000	97.653316 
3834.000000	97.652280 
3833.000000	97.651255 
3832.000000	97.650112 
3831.000000	97.648822 
3830.000000	97.647434 
3829.000000	97.646017 
3828.000000	97.644600 
3827.000000	97.643162 
3826.000000	97.641690 
3825.000000	97.640177 
3824.000000	97.638613 
3823.000000	97.637002 
3822.000000	97.635363 
3821.000000	97.633707 
3820.000000	97.632022 
3819.000000	97.630288 
3818.000000	97.628512 
3817.000000	97.626726 
3816.000000	97.624959 
3815.000000	97.623212 
3814.000000	97.621471 
3813.000000	97.619744 
3812.000000	97.618053 
3811.000000	97.616409 
3810.000000	97.614806 
3809.000000	97.613235 
3808.000000	97.611700 
3807.000000	97.610213 
3806.000000	97.608773 
3805.000000	97.607364 
3804.000000	97.605975 
3803.000000	97.604613 
3802.000000	97.603286 
3801.000000	97.601980 
3800.000000	97.600663 
3799.000000	97.599319 
3798.000000	97.597959 
3797.000000	97.596590 
3796.000000	97.595194 
3795.000000	97.593734 
3794.000000	97.592178 
3793.000000	97.590519 
3792.000000	97.588771 
3791.000000	97.586956 
3790.000000	97.585085 
3789.000000	97.583163 
3788.000000	97.581179 
3787.000000	97.579120 
3786.000000	97.577001 
3785.000000	97.574890 
3784.000000	97.572837 
3783.000000	97.570800 
3782.000000	97.568716 
3781.000000	97.566612 
3780.000000	97.564592 
3779.000000	97.562715 
3778.000000	97.560884 
3777.000000	97.558997 
3776.000000	97.557048 
3775.000000	97.555062 
3774.000000	97.553021 
3773.000000	97.550902 
3772.000000	97.548742 
3771.000000	97.546591 
3770.000000	97.544445 
3769.000000	97.542279 
3768.000000	97.540094 
3767.000000	97.537895 
3766.000000	97.535692 
3765.000000	97.533482 
3764.000000	97.531247 
3763.000000	97.528976 
3762.000000	97.526674 
3761.000000	97.524348 
3760.000000	97.522000 
3759.000000	97.519631 
3758.000000	97.517254 
3757.000000	97.514884 
3756.000000	97.512523 
3755.000000	97.510159 
3754.000000	97.507794 
3753.000000	97.505450 
3752.000000	97.503150 
3751.000000	97.500899 
3750.000000	97.498690 
3749.000000	97.496512 
3748.000000	97.494366 
3747.000000	97.492261 
3746.000000	97.490222 
3745.000000	97.488276 
3744.000000	97.486418 
3743.000000	97.484618 
3742.000000	97.482850 
3741.000000	97.481012 
3740.000000	97.479176 
3739.000000	97.477606 
3738.000000	97.476362 
3737.000000	97.475233 
3736.000000	97.474052 
3735.000000	97.472597 
3734.000000	97.470694 
3733.000000	97.469057 
3732.000000	97.469063 
3731.000000	97.470912 
3730.000000	97.472892 
3729.000000	97.473376 
3728.000000	97.472641 
3727.000000	97.472273 
3726.000000	97.472746 
3725.000000	97.472777 
3724.000000	97.471675 
3723.000000	97.470099 
3722.000000	97.468536 
3721.000000	97.466921 
3720.000000	97.465916 
3719.000000	97.467089 
3718.000000	97.471424 
3717.000000	97.477392 
3716.000000	97.480812 
3715.000000	97.478869 
3714.000000	97.474067 
3713.000000	97.472362 
3712.000000	97.476164 
3711.000000	97.481485 
3710.000000	97.483786 
3709.000000	97.482523 
3708.000000	97.479740 
3707.000000	97.477461 
3706.000000	97.476217 
3705.000000	97.475924 
3704.000000	97.477527 
3703.000000	97.483138 
3702.000000	97.494139 
3701.000000	97.509404 
3700.000000	97.525800 
3699.000000	97.541014 
3698.000000	97.556448 
3697.000000	97.574623 
3696.000000	97.592792 
3695.000000	97.604111 
3694.000000	97.606220 
3693.000000	97.603226 
3692.000000	97.598492 
3691.000000	97.589906 
3690.000000	97.576503 
3689.000000	97.566727 
3688.000000	97.570778 
3687.000000	97.586490 
3686.000000	97.603398 
3685.000000	97.615986 
3684.000000	97.624026 
3683.000000	97.626669 
3682.000000	97.622176 
3681.000000	97.614286 
3680.000000	97.610680 
3679.000000	97.611903 
3678.000000	97.610648 
3677.000000	97.605645 
3676.000000	97.606331 
3675.000000	97.613490 
3674.000000	97.612563 
3673.000000	97.594683 
3672.000000	97.568120 
3671.000000	97.547718 
3670.000000	97.537406 
3669.000000	97.528407 
3668.000000	97.517216 
3667.000000	97.510336 
3666.000000	97.511836 
3665.000000	97.517826 
3664.000000	97.521385 
3663.000000	97.519532 
3662.000000	97.513754 
3661.000000	97.505020 
3660.000000	97.490251 
3659.000000	97.466122 
3658.000000	97.435206 
3657.000000	97.406610 
3656.000000	97.386677 
3655.000000	97.370528 
3654.000000	97.349381 
3653.000000	97.321737 
3652.000000	97.293271 
3651.000000	97.268032 
3650.000000	97.243373 
3649.000000	97.217998 
3648.000000	97.198539 
3647.000000	97.187957 
3646.000000	97.180058 
3645.000000	97.170124 
3644.000000	97.161399 
3643.000000	97.159134 
3642.000000	97.161112 
3641.000000	97.157115 
3640.000000	97.139326 
3639.000000	97.111525 
3638.000000	97.084692 
3637.000000	97.066348 
3636.000000	97.057282 
3635.000000	97.055395 
3634.000000	97.057225 
3633.000000	97.056420 
3632.000000	97.047662 
3631.000000	97.032757 
3630.000000	97.019998 
3629.000000	97.012612 
3628.000000	97.002579 
3627.000000	96.984248 
3626.000000	96.963396 
3625.000000	96.947804 
3624.000000	96.937323 
3623.000000	96.925746 
3622.000000	96.910608 
3621.000000	96.898689 
3620.000000	96.897810 
3619.000000	96.905807 
3618.000000	96.912504 
3617.000000	96.910783 
3616.000000	96.902167 
3615.000000	96.894537 
3614.000000	96.895344 
3613.000000	96.904856 
3612.000000	96.916194 
3611.000000	96.923010 
3610.000000	96.926342 
3609.000000	96.931626 
3608.000000	96.940344 
3607.000000	96.948160 
3606.000000	96.951240 
3605.000000	96.951008 
3604.000000	96.951548 
3603.000000	96.954836 
3602.000000	96.958983 
3601.000000	96.960982 
3600.000000	96.959507 
3599.000000	96.956503 
3598.000000	96.956563 
3597.000000	96.962694 
3596.000000	96.973335 
3595.000000	96.983932 
3594.000000	96.990091 
3593.000000	96.989977 
3592.000000	96.985497 
3591.000000	96.981084 
3590.000000	96.981379 
3589.000000	96.987390 
3588.000000	96.994199 
3587.000000	96.995332 
3586.000000	96.990005 
3585.000000	96.982799 
3584.000000	96.977608 
3583.000000	96.974755 
3582.000000	96.973052 
3581.000000	96.972581 
3580.000000	96.974488 
3579.000000	96.978772 
3578.000000	96.983875 
3577.000000	96.988497 
3576.000000	96.993042 
3575.000000	96.998757 
3574.000000	97.005588 
3573.000000	97.011311 
3572.000000	97.013346 
3571.000000	97.010855 
3570.000000	97.005152 
3569.000000	96.998720 
3568.000000	96.993225 
3567.000000	96.988661 
3566.000000	96.985113 
3565.000000	96.984026 
3564.000000	96.986821 
3563.000000	96.993188 
3562.000000	97.000860 
3561.000000	97.007136 
3560.000000	97.010921 
3559.000000	97.012890 
3558.000000	97.014121 
3557.000000	97.015008 
3556.000000	97.015411 
3555.000000	97.015447 
3554.000000	97.015858 
3553.000000	97.017017 
3552.000000	97.017858 
3551.000000	97.016701 
3550.000000	97.013130 
3549.000000	97.008466 
3548.000000	97.004006 
3547.000000	96.999642 
3546.000000	96.995428 
3545.000000	96.993450 
3544.000000	96.996296 
3543.000000	97.003953 
3542.000000	97.013453 
3541.000000	97.021513 
3540.000000	97.026925 
3539.000000	97.030489 
3538.000000	97.033469 
3537.000000	97.036370 
3536.000000	97.038820 
3535.000000	97.040361 
3534.000000	97.041241 
3533.000000	97.042399 
3532.000000	97.044456 
3531.000000	97.046875 
3530.000000	97.048435 
3529.000000	97.048510 
3528.000000	97.047509 
3527.000000	97.046061 
3526.000000	97.044449 
3525.000000	97.043119 
3524.000000	97.042941 
3523.000000	97.044440 
3522.000000	97.047183 
3521.000000	97.050298 
3520.000000	97.053505 
3519.000000	97.057136 
3518.000000	97.061173 
3517.000000	97.064679 
3516.000000	97.066450 
3515.000000	97.066079 
3514.000000	97.064261 
3513.000000	97.062425 
3512.000000	97.062091 
3511.000000	97.064096 
3510.000000	97.068117 
3509.000000	97.072826 
3508.000000	97.076724 
3507.000000	97.079200 
3506.000000	97.080703 
3505.000000	97.082061 
3504.000000	97.083760 
3503.000000	97.085789 
3502.000000	97.088038 
3501.000000	97.090542 
3500.000000	97.093293 
3499.000000	97.095959 
3498.000000	97.097992 
3497.000000	97.099131 
3496.000000	97.099679 
3495.000000	97.100283 
3494.000000	97.101413 
3493.000000	97.103103 
3492.000000	97.105129 
3491.000000	97.107227 
3490.000000	97.109192 
3489.000000	97.110902 
3488.000000	97.112341 
3487.000000	97.113622 
3486.000000	97.114931 
3485.000000	97.116379 
3484.000000	97.117893 
3483.000000	97.119271 
3482.000000	97.120391 
3481.000000	97.121371 
3480.000000	97.122469 
3479.000000	97.123814 
3478.000000	97.125265 
3477.000000	97.126555 
3476.000000	97.127570 
3475.000000	97.128443 
3474.000000	97.129401 
3473.000000	97.130546 
3472.000000	97.131807 
3471.000000	97.133041 
3470.000000	97.134135 
3469.000000	97.135040 
3468.000000	97.135803 
3467.000000	97.136599 
3466.000000	97.137628 
3465.000000	97.138961 
3464.000000	97.140430 
3463.000000	97.141725 
3462.000000	97.142671 
3461.000000	97.143292 
3460.000000	97.143773 
3459.000000	97.144312 
3458.000000	97.144984 
3457.000000	97.145747 
3456.000000	97.146530 
3455.000000	97.147297 
3454.000000	97.148045 
3453.000000	97.148806 
3452.000000	97.149716 
3451.000000	97.150982 
3450.000000	97.152636 
3449.000000	97.154340 
3448.000000	97.155665 
3447.000000	97.156607 
3446.000000	97.157638 
3445.000000	97.159044 
3444.000000	97.160431 
3443.000000	97.161174 
3442.000000	97.161169 
3441.000000	97.160823 
3440.000000	97.160326 
3439.000000	97.159402 
3438.000000	97.158023 
3437.000000	97.157018 
3436.000000	97.157458 
3435.000000	97.159472 
3434.000000	97.161931 
3433.000000	97.163415 
3432.000000	97.163508 
3431.000000	97.162853 
3430.000000	97.162244 
3429.000000	97.161875 
3428.000000	97.161529 
3427.000000	97.161162 
3426.000000	97.160962 
3425.000000	97.160953 
3424.000000	97.160932 
3423.000000	97.160866 
3422.000000	97.160988 
3421.000000	97.161327 
3420.000000	97.161570 
3419.000000	97.161705 
3418.000000	97.162307 
3417.000000	97.163589 
3416.000000	97.164562 
3415.000000	97.163983 
3414.000000	97.162096 
3413.000000	97.160641 
3412.000000	97.160665 
3411.000000	97.160996 
3410.000000	97.159651 
3409.000000	97.156270 
3408.000000	97.152494 
3407.000000	97.150036 
3406.000000	97.149015 
3405.000000	97.148310 
3404.000000	97.146831 
3403.000000	97.144121 
3402.000000	97.140321 
3401.000000	97.136276 
3400.000000	97.133520 
3399.000000	97.133394 
3398.000000	97.135850 
3397.000000	97.139227 
3396.000000	97.141308 
3395.000000	97.140819 
3394.000000	97.137906 
3393.000000	97.133849 
3392.000000	97.130509 
3391.000000	97.129215 
3390.000000	97.129857 
3389.000000	97.131014 
3388.000000	97.131445 
3387.000000	97.131451 
3386.000000	97.132274 
3385.000000	97.134234 
3384.000000	97.135974 
3383.000000	97.135834 
3382.000000	97.133513 
3381.000000	97.130072 
3380.000000	97.126715 
3379.000000	97.123944 
3378.000000	97.121728 
3377.000000	97.119907 
3376.000000	97.118299 
3375.000000	97.116715 
3374.000000	97.115058 
3373.000000	97.113305 
3372.000000	97.111347 
3371.000000	97.109027 
3370.000000	97.106403 
3369.000000	97.103836 
3368.000000	97.101618 
3367.000000	97.099565 
3366.000000	97.097171 
3365.000000	97.094205 
3364.000000	97.091065 
3363.000000	97.088404 
3362.000000	97.086383 
3361.000000	97.084410 
3360.000000	97.081736 
3359.000000	97.078297 
3358.000000	97.074886 
3357.000000	97.072389 
3356.000000	97.070835 
3355.000000	97.069208 
3354.000000	97.066296 
3353.000000	97.061740 
3352.000000	97.056391 
3351.000000	97.051748 
3350.000000	97.048730 
3349.000000	97.047201 
3348.000000	97.046220 
3347.000000	97.044757 
3346.000000	97.042401 
3345.000000	97.039384 
3344.000000	97.036137 
3343.000000	97.032808 
3342.000000	97.029238 
3341.000000	97.025428 
3340.000000	97.021827 
3339.000000	97.018926 
3338.000000	97.016606 
3337.000000	97.014177 
3336.000000	97.011252 
3335.000000	97.008343 
3334.000000	97.006206 
3333.000000	97.004741 
3332.000000	97.002896 
3331.000000	96.999765 
3330.000000	96.995424 
3329.000000	96.990613 
3328.000000	96.985875 
3327.000000	96.981330 
3326.000000	96.977085 
3325.000000	96.973392 
3324.000000	96.970349 
3323.000000	96.967653 
3322.000000	96.964804 
3321.000000	96.961493 
3320.000000	96.957715 
3319.000000	96.953544 
3318.000000	96.948990 
3317.000000	96.944168 
3316.000000	96.939426 
3315.000000	96.934969 
3314.000000	96.930414 
3313.000000	96.925125 
3312.000000	96.919135 
3311.000000	96.913417 
3310.000000	96.908879 
3309.000000	96.905287 
3308.000000	96.901593 
3307.000000	96.897078 
3306.000000	96.891801 
3305.000000	96.886084 
3304.000000	96.880307 
3303.000000	96.875245 
3302.000000	96.871808 
3301.000000	96.870004 
3300.000000	96.868362 
3299.000000	96.864904 
3298.000000	96.858723 
3297.000000	96.850358 
3296.000000	96.841241 
3295.000000	96.832779 
3294.000000	96.825697 
3293.000000	96.819963 
3292.000000	96.815211 
3291.000000	96.811250 
3290.000000	96.807913 
3289.000000	96.804395 
3288.000000	96.799414 
3287.000000	96.792556 
3286.000000	96.785208 
3285.000000	96.779456 
3284.000000	96.776017 
3283.000000	96.773813 
3282.000000	96.771397 
3281.000000	96.768253 
3280.000000	96.764436 
3279.000000	96.759701 
3278.000000	96.753586 
3277.000000	96.746110 
3276.000000	96.737964 
3275.000000	96.730115 
3274.000000	96.723442 
3273.000000	96.718484 
3272.000000	96.715094 
3271.000000	96.712405 
3270.000000	96.709572 
3269.000000	96.706620 
3268.000000	96.704225 
3267.000000	96.702579 
3266.000000	96.700723 
3265.000000	96.697312 
3264.000000	96.692060 
3263.000000	96.686295 
3262.000000	96.681811 
3261.000000	96.679048 
3260.000000	96.676743 
3259.000000	96.673613 
3258.000000	96.670137 
3257.000000	96.667987 
3256.000000	96.667627 
3255.000000	96.667159 
3254.000000	96.664298 
3253.000000	96.658929 
3252.000000	96.653029 
3251.000000	96.648324 
3250.000000	96.644634 
3249.000000	96.640787 
3248.000000	96.636263 
3247.000000	96.631355 
3246.000000	96.626359 
3245.000000	96.621382 
3244.000000	96.616712 
3243.000000	96.612525 
3242.000000	96.608168 
3241.000000	96.602550 
3240.000000	96.595677 
3239.000000	96.589246 
3238.000000	96.585030 
3237.000000	96.582949 
3236.000000	96.581118 
3235.000000	96.577724 
3234.000000	96.572541 
3233.000000	96.566619 
3232.000000	96.561151 
3231.000000	96.556832 
3230.000000	96.553870 
3229.000000	96.552018 
3228.000000	96.550570 
3227.000000	96.548634 
3226.000000	96.545570 
3225.000000	96.541337 
3224.000000	96.536552 
3223.000000	96.532222 
3222.000000	96.529146 
3221.000000	96.527247 
3220.000000	96.525363 
3219.000000	96.521980 
3218.000000	96.516477 
3217.000000	96.509697 
3216.000000	96.503281 
3215.000000	96.498210 
3214.000000	96.494045 
3213.000000	96.489636 
3212.000000	96.484372 
3211.000000	96.478548 
3210.000000	96.472766 
3209.000000	96.467349 
3208.000000	96.462377 
3207.000000	96.457869 
3206.000000	96.453650 
3205.000000	96.449275 
3204.000000	96.444442 
3203.000000	96.439396 
3202.000000	96.434690 
3201.000000	96.430551 
3200.000000	96.426729 
3199.000000	96.422841 
3198.000000	96.418701 
3197.000000	96.414324 
3196.000000	96.409806 
3195.000000	96.405315 
3194.000000	96.401022 
3193.000000	96.396948 
3192.000000	96.392890 
3191.000000	96.388591 
3190.000000	96.383985 
3189.000000	96.379217 
