PE IR                   SPECTRUM    ASCII       PEDS        1.60        
  -1
~SP.SP
22/12/06
15:40:16.00
23/01/09
15:04:30.00
Administrator

650.000000
4









FRONTIER FT-IR,CPU32 MAIN 00.09.9951 07-SEPTEMBER-2011 11:49:41
MIR TGS
MIR
OPTKBR
90694
0.200000

4.000000
STRONG
RATIO
SPECTRUM
MAGNITUDE
MIRACLE ATR
DOUBLE

COMBINED


0


#HDR
-1
-1
#GR
CM-1
%T
0.00002384185791015625
0.0
4000.000000
-1.000000
3351
8
87.480867
75.055001
#DATA
4000.000000	87.466855 
3999.000000	87.467394 
3998.000000	87.467068 
3997.000000	87.465716 
3996.000000	87.463938 
3995.000000	87.462685 
3994.000000	87.462557 
3993.000000	87.463557 
3992.000000	87.465099 
3991.000000	87.466553 
3990.000000	87.467713 
3989.000000	87.468657 
3988.000000	87.469401 
3987.000000	87.469778 
3986.000000	87.469621 
3985.000000	87.468918 
3984.000000	87.467782 
3983.000000	87.466355 
3982.000000	87.464814 
3981.000000	87.463502 
3980.000000	87.462862 
3979.000000	87.463062 
3978.000000	87.463635 
3977.000000	87.463679 
3976.000000	87.462729 
3975.000000	87.461325 
3974.000000	87.460606 
3973.000000	87.461174 
3972.000000	87.462534 
3971.000000	87.463577 
3970.000000	87.463483 
3969.000000	87.462248 
3968.000000	87.460457 
3967.000000	87.458783 
3966.000000	87.457632 
3965.000000	87.457080 
3964.000000	87.457015 
3963.000000	87.457205 
3962.000000	87.457306 
3961.000000	87.457046 
3960.000000	87.456522 
3959.000000	87.456253 
3958.000000	87.456735 
3957.000000	87.457940 
3956.000000	87.459247 
3955.000000	87.459946 
3954.000000	87.459826 
3953.000000	87.459182 
3952.000000	87.458416 
3951.000000	87.457691 
3950.000000	87.456935 
3949.000000	87.456042 
3948.000000	87.455004 
3947.000000	87.453912 
3946.000000	87.452913 
3945.000000	87.452139 
3944.000000	87.451614 
3943.000000	87.451236 
3942.000000	87.450823 
3941.000000	87.450219 
3940.000000	87.449383 
3939.000000	87.448359 
3938.000000	87.447224 
3937.000000	87.446081 
3936.000000	87.445068 
3935.000000	87.444316 
3934.000000	87.443854 
3933.000000	87.443520 
3932.000000	87.443019 
3931.000000	87.442171 
3930.000000	87.441038 
3929.000000	87.439908 
3928.000000	87.439045 
3927.000000	87.438494 
3926.000000	87.438063 
3925.000000	87.437462 
3924.000000	87.436515 
3923.000000	87.435244 
3922.000000	87.433818 
3921.000000	87.432447 
3920.000000	87.431258 
3919.000000	87.430237 
3918.000000	87.429314 
3917.000000	87.428488 
3916.000000	87.427791 
3915.000000	87.427162 
3914.000000	87.426453 
3913.000000	87.425532 
3912.000000	87.424302 
3911.000000	87.422671 
3910.000000	87.420717 
3909.000000	87.418933 
3908.000000	87.418098 
3907.000000	87.418769 
3906.000000	87.420673 
3905.000000	87.422509 
3904.000000	87.422817 
3903.000000	87.421117 
3902.000000	87.417934 
3901.000000	87.414091 
3900.000000	87.410233 
3899.000000	87.406879 
3898.000000	87.404485 
3897.000000	87.403396 
3896.000000	87.403679 
3895.000000	87.405250 
3894.000000	87.407844 
3893.000000	87.410732 
3892.000000	87.412932 
3891.000000	87.413790 
3890.000000	87.413327 
3889.000000	87.411947 
3888.000000	87.410370 
3887.000000	87.409306 
3886.000000	87.408736 
3885.000000	87.408247 
3884.000000	87.407667 
3883.000000	87.406970 
3882.000000	87.406317 
3881.000000	87.405933 
3880.000000	87.405754 
3879.000000	87.405683 
3878.000000	87.405666 
3877.000000	87.405685 
3876.000000	87.405671 
3875.000000	87.405249 
3874.000000	87.404346 
3873.000000	87.403639 
3872.000000	87.403812 
3871.000000	87.405132 
3870.000000	87.407500 
3869.000000	87.410200 
3868.000000	87.411834 
3867.000000	87.411423 
3866.000000	87.409775 
3865.000000	87.408754 
3864.000000	87.409246 
3863.000000	87.410536 
3862.000000	87.411249 
3861.000000	87.410764 
3860.000000	87.409795 
3859.000000	87.409658 
3858.000000	87.411400 
3857.000000	87.415346 
3856.000000	87.420512 
3855.000000	87.424084 
3854.000000	87.423366 
3853.000000	87.419336 
3852.000000	87.416193 
3851.000000	87.414723 
3850.000000	87.413043 
3849.000000	87.410979 
3848.000000	87.408816 
3847.000000	87.406420 
3846.000000	87.404174 
3845.000000	87.402774 
3844.000000	87.402409 
3843.000000	87.402568 
3842.000000	87.402809 
3841.000000	87.403159 
3840.000000	87.403624 
3839.000000	87.403579 
3838.000000	87.402350 
3837.000000	87.400411 
3836.000000	87.399212 
3835.000000	87.399798 
3834.000000	87.401946 
3833.000000	87.404104 
3832.000000	87.404289 
3831.000000	87.401709 
3830.000000	87.397455 
3829.000000	87.393757 
3828.000000	87.392471 
3827.000000	87.393873 
3826.000000	87.396574 
3825.000000	87.398683 
3824.000000	87.399221 
3823.000000	87.398849 
3822.000000	87.399258 
3821.000000	87.401730 
3820.000000	87.405959 
3819.000000	87.408835 
3818.000000	87.407375 
3817.000000	87.403450 
3816.000000	87.400910 
3815.000000	87.400675 
3814.000000	87.399841 
3813.000000	87.394791 
3812.000000	87.385937 
3811.000000	87.376821 
3810.000000	87.369679 
3809.000000	87.364568 
3808.000000	87.361117 
3807.000000	87.359940 
3806.000000	87.362396 
3805.000000	87.368187 
3804.000000	87.375373 
3803.000000	87.382730 
3802.000000	87.389326 
3801.000000	87.395100 
3800.000000	87.400804 
3799.000000	87.404078 
3798.000000	87.403041 
3797.000000	87.399930 
3796.000000	87.396373 
3795.000000	87.391679 
3794.000000	87.384861 
3793.000000	87.376417 
3792.000000	87.368695 
3791.000000	87.363719 
3790.000000	87.361284 
3789.000000	87.359147 
3788.000000	87.354798 
3787.000000	87.347821 
3786.000000	87.340983 
3785.000000	87.338226 
3784.000000	87.340709 
3783.000000	87.345401 
3782.000000	87.348235 
3781.000000	87.348158 
3780.000000	87.347339 
3779.000000	87.348012 
3778.000000	87.350015 
3777.000000	87.351241 
3776.000000	87.350876 
3775.000000	87.350855 
3774.000000	87.353254 
3773.000000	87.358049 
3772.000000	87.363472 
3771.000000	87.367367 
3770.000000	87.368350 
3769.000000	87.366301 
3768.000000	87.361683 
3767.000000	87.355412 
3766.000000	87.349485 
3765.000000	87.345872 
3764.000000	87.345065 
3763.000000	87.346369 
3762.000000	87.348818 
3761.000000	87.351243 
3760.000000	87.352058 
3759.000000	87.351064 
3758.000000	87.350868 
3757.000000	87.354092 
3756.000000	87.360748 
3755.000000	87.368918 
3754.000000	87.376690 
3753.000000	87.383157 
3752.000000	87.387757 
3751.000000	87.390325 
3750.000000	87.391541 
3749.000000	87.390576 
3748.000000	87.384985 
3747.000000	87.375143 
3746.000000	87.363895 
3745.000000	87.352994 
3744.000000	87.343823 
3743.000000	87.336453 
3742.000000	87.327104 
3741.000000	87.315831 
3740.000000	87.309342 
3739.000000	87.311074 
3738.000000	87.317538 
3737.000000	87.322546 
3736.000000	87.323711 
3735.000000	87.324711 
3734.000000	87.329281 
3733.000000	87.335652 
3732.000000	87.339354 
3731.000000	87.338031 
3730.000000	87.331129 
3729.000000	87.319184 
3728.000000	87.304527 
3727.000000	87.290603 
3726.000000	87.280193 
3725.000000	87.273645 
3724.000000	87.268253 
3723.000000	87.260657 
3722.000000	87.250273 
3721.000000	87.240030 
3720.000000	87.233536 
3719.000000	87.231260 
3718.000000	87.230040 
3717.000000	87.226286 
3716.000000	87.219385 
3715.000000	87.211505 
3714.000000	87.204685 
3713.000000	87.198560 
3712.000000	87.191710 
3711.000000	87.185002 
3710.000000	87.179995 
3709.000000	87.174831 
3708.000000	87.166584 
3707.000000	87.155397 
3706.000000	87.143585 
3705.000000	87.132934 
3704.000000	87.123661 
3703.000000	87.114919 
3702.000000	87.106154 
3701.000000	87.098159 
3700.000000	87.092057 
3699.000000	87.087627 
3698.000000	87.083462 
3697.000000	87.077887 
3696.000000	87.069881 
3695.000000	87.060093 
3694.000000	87.050668 
3693.000000	87.043708 
3692.000000	87.039497 
3691.000000	87.036356 
3690.000000	87.032675 
3689.000000	87.028662 
3688.000000	87.024732 
3687.000000	87.018864 
3686.000000	87.009030 
3685.000000	86.996757 
3684.000000	86.985447 
3683.000000	86.977337 
3682.000000	86.972476 
3681.000000	86.968994 
3680.000000	86.964424 
3679.000000	86.957199 
3678.000000	86.947086 
3677.000000	86.935681 
3676.000000	86.926650 
3675.000000	86.923689 
3674.000000	86.925148 
3673.000000	86.923481 
3672.000000	86.915543 
3671.000000	86.903824 
3670.000000	86.889481 
3669.000000	86.873963 
3668.000000	86.858254 
3667.000000	86.840798 
3666.000000	86.822338 
3665.000000	86.806012 
3664.000000	86.793743 
3663.000000	86.785857 
3662.000000	86.781182 
3661.000000	86.777327 
3660.000000	86.772162 
3659.000000	86.765006 
3658.000000	86.756485 
3657.000000	86.748065 
3656.000000	86.741801 
3655.000000	86.739205 
3654.000000	86.739522 
3653.000000	86.740617 
3652.000000	86.740126 
3651.000000	86.735337 
3650.000000	86.727014 
3649.000000	86.722234 
3648.000000	86.724784 
3647.000000	86.726986 
3646.000000	86.720670 
3645.000000	86.708301 
3644.000000	86.697776 
3643.000000	86.692790 
3642.000000	86.690130 
3641.000000	86.683997 
3640.000000	86.672075 
3639.000000	86.657600 
3638.000000	86.646414 
3637.000000	86.642317 
3636.000000	86.644823 
3635.000000	86.650254 
3634.000000	86.654782 
3633.000000	86.657207 
3632.000000	86.658975 
3631.000000	86.661584 
3630.000000	86.663601 
3629.000000	86.662021 
3628.000000	86.658371 
3627.000000	86.655513 
3626.000000	86.651610 
3625.000000	86.645327 
3624.000000	86.636978 
3623.000000	86.627095 
3622.000000	86.619309 
3621.000000	86.618748 
3620.000000	86.626845 
3619.000000	86.639469 
3618.000000	86.650865 
3617.000000	86.658200 
3616.000000	86.662636 
3615.000000	86.667392 
3614.000000	86.674132 
3613.000000	86.681848 
3612.000000	86.688418 
3611.000000	86.692254 
3610.000000	86.693724 
3609.000000	86.695248 
3608.000000	86.699231 
3607.000000	86.705732 
3606.000000	86.712276 
3605.000000	86.716591 
3604.000000	86.719292 
3603.000000	86.722733 
3602.000000	86.728373 
3601.000000	86.736221 
3600.000000	86.745855 
3599.000000	86.756921 
3598.000000	86.768532 
3597.000000	86.778857 
3596.000000	86.785611 
3595.000000	86.787469 
3594.000000	86.785292 
3593.000000	86.781782 
3592.000000	86.780162 
3591.000000	86.783404 
3590.000000	86.792690 
3589.000000	86.805202 
3588.000000	86.814843 
3587.000000	86.817591 
3586.000000	86.814644 
3585.000000	86.809344 
3584.000000	86.804157 
3583.000000	86.800165 
3582.000000	86.797126 
3581.000000	86.794716 
3580.000000	86.793356 
3579.000000	86.793610 
3578.000000	86.795665 
3577.000000	86.799572 
3576.000000	86.805401 
3575.000000	86.812742 
3574.000000	86.820129 
3573.000000	86.825516 
3572.000000	86.827711 
3571.000000	86.827272 
3570.000000	86.825823 
3569.000000	86.824402 
3568.000000	86.822858 
3567.000000	86.821257 
3566.000000	86.820983 
3565.000000	86.823135 
3564.000000	86.827275 
3563.000000	86.832185 
3562.000000	86.836307 
3561.000000	86.838285 
3560.000000	86.837940 
3559.000000	86.836251 
3558.000000	86.834551 
3557.000000	86.833844 
3556.000000	86.834670 
3555.000000	86.837131 
3554.000000	86.840701 
3553.000000	86.844103 
3552.000000	86.845867 
3551.000000	86.845377 
3550.000000	86.843370 
3549.000000	86.841243 
3548.000000	86.839653 
3547.000000	86.838096 
3546.000000	86.836225 
3545.000000	86.835125 
3544.000000	86.836343 
3543.000000	86.840004 
3542.000000	86.844574 
3541.000000	86.848271 
3540.000000	86.850447 
3539.000000	86.851651 
3538.000000	86.852821 
3537.000000	86.854676 
3536.000000	86.857574 
3535.000000	86.861424 
3534.000000	86.865571 
3533.000000	86.869096 
3532.000000	86.871452 
3531.000000	86.872809 
3530.000000	86.873748 
3529.000000	86.874599 
3528.000000	86.875013 
3527.000000	86.874267 
3526.000000	86.872105 
3525.000000	86.869425 
3524.000000	86.867960 
3523.000000	86.868883 
3522.000000	86.871774 
3521.000000	86.875118 
3520.000000	86.878015 
3519.000000	86.880957 
3518.000000	86.884678 
3517.000000	86.888640 
3516.000000	86.891190 
3515.000000	86.891271 
3514.000000	86.889603 
3513.000000	86.888202 
3512.000000	86.888855 
3511.000000	86.892096 
3510.000000	86.897160 
3509.000000	86.902407 
3508.000000	86.906271 
3507.000000	86.908434 
3506.000000	86.910036 
3505.000000	86.912538 
3504.000000	86.916224 
3503.000000	86.920064 
3502.000000	86.923108 
3501.000000	86.925590 
3500.000000	86.928379 
3499.000000	86.931601 
3498.000000	86.934219 
3497.000000	86.935159 
3496.000000	86.934476 
3495.000000	86.933254 
3494.000000	86.932627 
3493.000000	86.933069 
3492.000000	86.934542 
3491.000000	86.936875 
3490.000000	86.939792 
3489.000000	86.942780 
3488.000000	86.945245 
3487.000000	86.946966 
3486.000000	86.948310 
3485.000000	86.949889 
3484.000000	86.951932 
3483.000000	86.954078 
3482.000000	86.955854 
3481.000000	86.957294 
3480.000000	86.958884 
3479.000000	86.960874 
3478.000000	86.962809 
3477.000000	86.963949 
3476.000000	86.964119 
3475.000000	86.964108 
3474.000000	86.965021 
3473.000000	86.967229 
3472.000000	86.970144 
3471.000000	86.972787 
3470.000000	86.974650 
3469.000000	86.975859 
3468.000000	86.976867 
3467.000000	86.978191 
3466.000000	86.980205 
3465.000000	86.982940 
3464.000000	86.985934 
3463.000000	86.988444 
3462.000000	86.989978 
3461.000000	86.990595 
3460.000000	86.990763 
3459.000000	86.990946 
3458.000000	86.991376 
3457.000000	86.992194 
3456.000000	86.993607 
3455.000000	86.995765 
3454.000000	86.998473 
3453.000000	87.001239 
3452.000000	87.003760 
3451.000000	87.006253 
3450.000000	87.009040 
3449.000000	87.011974 
3448.000000	87.014603 
3447.000000	87.016892 
3446.000000	87.019272 
3445.000000	87.021744 
3444.000000	87.023580 
3443.000000	87.024366 
3442.000000	87.024855 
3441.000000	87.026195 
3440.000000	87.028393 
3439.000000	87.030242 
3438.000000	87.030925 
3437.000000	87.031152 
3436.000000	87.032290 
3435.000000	87.034585 
3434.000000	87.036740 
3433.000000	87.037289 
3432.000000	87.036112 
3431.000000	87.034594 
3430.000000	87.034423 
3429.000000	87.036196 
3428.000000	87.039250 
3427.000000	87.042392 
3426.000000	87.044879 
3425.000000	87.046730 
3424.000000	87.048348 
3423.000000	87.050076 
3422.000000	87.051996 
3421.000000	87.053992 
3420.000000	87.056045 
3419.000000	87.058486 
3418.000000	87.061670 
3417.000000	87.065180 
3416.000000	87.067740 
3415.000000	87.068505 
3414.000000	87.068224 
3413.000000	87.068540 
3412.000000	87.069889 
3411.000000	87.070908 
3410.000000	87.070333 
3409.000000	87.068723 
3408.000000	87.067789 
3407.000000	87.068324 
3406.000000	87.069736 
3405.000000	87.071413 
3404.000000	87.073469 
3403.000000	87.075774 
3402.000000	87.077172 
3401.000000	87.076597 
3400.000000	87.074726 
3399.000000	87.073771 
3398.000000	87.075322 
3397.000000	87.078863 
3396.000000	87.082347 
3395.000000	87.084053 
3394.000000	87.083749 
3393.000000	87.082497 
3392.000000	87.081815 
3391.000000	87.082726 
3390.000000	87.085183 
3389.000000	87.088148 
3388.000000	87.090595 
3387.000000	87.092644 
3386.000000	87.095392 
3385.000000	87.099513 
3384.000000	87.104241 
3383.000000	87.107994 
3382.000000	87.109907 
3381.000000	87.110352 
3380.000000	87.110094 
3379.000000	87.109487 
3378.000000	87.108662 
3377.000000	87.108043 
3376.000000	87.108201 
3375.000000	87.109327 
3374.000000	87.111175 
3373.000000	87.113367 
3372.000000	87.115473 
3371.000000	87.116909 
3370.000000	87.117199 
3369.000000	87.116489 
3368.000000	87.115497 
3367.000000	87.114760 
3366.000000	87.114119 
3365.000000	87.113148 
3364.000000	87.112021 
3363.000000	87.111605 
3362.000000	87.112556 
3361.000000	87.114444 
3360.000000	87.115931 
3359.000000	87.116008 
3358.000000	87.114959 
3357.000000	87.113926 
3356.000000	87.113529 
3355.000000	87.113207 
3354.000000	87.112017 
3353.000000	87.109821 
3352.000000	87.107522 
3351.000000	87.106255 
3350.000000	87.106465 
3349.000000	87.107783 
3348.000000	87.109326 
3347.000000	87.110157 
3346.000000	87.109818 
3345.000000	87.108599 
3344.000000	87.107327 
3343.000000	87.106637 
3342.000000	87.106427 
3341.000000	87.106133 
3340.000000	87.105390 
3339.000000	87.104258 
3338.000000	87.102926 
3337.000000	87.101511 
3336.000000	87.100218 
3335.000000	87.099413 
3334.000000	87.099260 
3333.000000	87.099333 
3332.000000	87.098833 
3331.000000	87.097353 
3330.000000	87.095191 
3329.000000	87.092980 
3328.000000	87.091067 
3327.000000	87.089468 
3326.000000	87.088224 
3325.000000	87.087465 
3324.000000	87.087090 
3323.000000	87.086541 
3322.000000	87.085187 
3321.000000	87.082905 
3320.000000	87.080121 
3319.000000	87.077330 
3318.000000	87.074688 
3317.000000	87.072172 
3316.000000	87.069859 
3315.000000	87.067860 
3314.000000	87.066081 
3313.000000	87.064250 
3312.000000	87.062264 
3311.000000	87.060344 
3310.000000	87.058704 
3309.000000	87.057169 
3308.000000	87.055267 
3307.000000	87.052714 
3306.000000	87.049667 
3305.000000	87.046531 
3304.000000	87.043657 
3303.000000	87.041262 
3302.000000	87.039407 
3301.000000	87.037932 
3300.000000	87.036408 
3299.000000	87.034374 
3298.000000	87.031657 
3297.000000	87.028427 
3296.000000	87.025051 
3295.000000	87.021855 
3294.000000	87.018954 
3293.000000	87.016248 
3292.000000	87.013620 
3291.000000	87.011141 
3290.000000	87.008928 
3289.000000	87.006783 
3288.000000	87.004189 
3287.000000	87.000855 
3286.000000	86.997178 
3285.000000	86.994004 
3284.000000	86.991795 
3283.000000	86.990313 
3282.000000	86.988997 
3281.000000	86.987453 
3280.000000	86.985420 
3279.000000	86.982633 
3278.000000	86.979044 
3277.000000	86.975099 
3276.000000	86.971452 
3275.000000	86.968365 
3274.000000	86.965658 
3273.000000	86.963146 
3272.000000	86.960841 
3271.000000	86.958721 
3270.000000	86.956673 
3269.000000	86.954768 
3268.000000	86.953299 
3267.000000	86.952361 
3266.000000	86.951538 
3265.000000	86.950183 
3264.000000	86.947964 
3263.000000	86.945116 
3262.000000	86.942174 
3261.000000	86.939500 
3260.000000	86.937081 
3259.000000	86.934764 
3258.000000	86.932561 
3257.000000	86.930613 
3256.000000	86.928859 
3255.000000	86.926958 
3254.000000	86.924694 
3253.000000	86.922322 
3252.000000	86.920325 
3251.000000	86.918832 
3250.000000	86.917456 
3249.000000	86.915740 
3248.000000	86.913615 
3247.000000	86.911298 
3246.000000	86.908942 
3245.000000	86.906558 
3244.000000	86.904184 
3243.000000	86.901862 
3242.000000	86.899460 
3241.000000	86.896754 
3240.000000	86.893761 
3239.000000	86.890902 
3238.000000	86.888616 
3237.000000	86.886925 
3236.000000	86.885406 
3235.000000	86.883574 
3234.000000	86.881310 
3233.000000	86.878779 
3232.000000	86.876181 
3231.000000	86.873603 
3230.000000	86.871116 
3229.000000	86.868863 
3228.000000	86.866956 
3227.000000	86.865325 
3226.000000	86.863687 
3225.000000	86.861721 
3224.000000	86.859308 
3223.000000	86.856657 
3222.000000	86.854227 
3221.000000	86.852420 
3220.000000	86.851229 
3219.000000	86.850083 
3218.000000	86.848241 
3217.000000	86.845484 
3216.000000	86.842398 
3215.000000	86.839855 
3214.000000	86.838075 
3213.000000	86.836427 
3212.000000	86.834152 
3211.000000	86.831147 
3210.000000	86.827909 
3209.000000	86.824878 
3208.000000	86.822045 
3207.000000	86.819165 
3206.000000	86.816106 
3205.000000	86.812909 
3204.000000	86.809729 
3203.000000	86.806844 
3202.000000	86.804541 
3201.000000	86.802851 
3200.000000	86.801485 
3199.000000	86.800151 
3198.000000	86.798818 
3197.000000	86.797585 
3196.000000	86.796437 
3195.000000	86.795290 
3194.000000	86.794174 
3193.000000	86.793135 
3192.000000	86.791935 
3191.000000	86.790102 
3190.000000	86.787424 
3189.000000	86.784263 
